%OpenBCI Raw EXG Data
%Number of channels = 8
%Sample Rate = 250 Hz
%Board = OpenBCI_GUI$BoardCytonSerial
Sample Index, EXG Channel 0, EXG Channel 1, EXG Channel 2, EXG Channel 3, EXG Channel 4, EXG Channel 5, EXG Channel 6, EXG Channel 7, Accel Channel 0, Accel Channel 1, Accel Channel 2, Not Used, Digital Channel 0 (D11), Digital Channel 1 (D12), Digital Channel 2 (D13), Digital Channel 3 (D17), Not Used, Digital Channel 4 (D18), Analog Channel 0, Analog Channel 1, Analog Channel 2, Timestamp, Marker Channel, Timestamp (Formatted)
0.0, -136806.0871131524, -42975.76611945226, 64544.417207767634, -140904.21240379958, -130476.54247004302, -120730.3995764732, -180327.97340488117, -125422.83540044253, 0.0, 0.0, 0.0, 193.0, 1.0, 1.0, 1.0, 0.0, 0.0, 0.0, 257.0, 256.0, 0.0, 1.7620043684765406E9, 0.0, 2025-11-01 17:09:28.476
1.0, -146253.3201281214, -103313.60737247556, 21596.769582840156, -176075.77753970356, -177592.47751146287, -155028.72675999723, -187500.02235174447, -179474.94142948886, 0.0, 0.0, 0.0, 193.0, 1.0, 1.0, 1.0, 0.0, 0.0, 0.0, 257.0, 256.0, 0.0, 1.7620043684782567E9, 0.0, 2025-11-01 17:09:28.478
2.0, 8265.451582127998, 62441.25216498997, 146932.65669735154, -19763.233633426862, -25072.57760436268, 25697.197103166236, -158288.05813647012, -38490.10628343896, 0.0, 0.0, 0.0, 193.0, 1.0, 1.0, 1.0, 0.0, 0.0, 0.0, 257.0, 256.0, 0.0, 1.7620043684784608E9, 0.0, 2025-11-01 17:09:28.478
3.0, 82582.96788727854, 155291.6056265361, 173151.90114401592, 105675.4938573234, 110675.91436814242, 137455.695862257, -95123.07883776174, 98916.12516833845, 0.0, 0.0, 0.0, 193.0, 1.0, 1.0, 1.0, 0.0, 0.0, 0.0, 257.0, 256.0, 0.0, 1.7620043684786825E9, 0.0, 2025-11-01 17:09:28.478
4.0, 2138.480799017048, 120513.83352444573, 163912.5393524813, 27070.957669133863, 43804.94878351078, 59781.238112597246, -128511.51120799914, 46518.249394684964, 0.0, 0.0, 0.0, 193.0, 1.0, 1.0, 1.0, 0.0, 0.0, 0.0, 257.0, 256.0, 0.0, 1.7620043684788117E9, 0.0, 2025-11-01 17:09:28.478
5.0, -136416.76442822986, -42476.40579657624, 64948.89437543087, -140293.38393132496, -129903.66725965349, -119795.89549254125, -180168.33724598138, -124800.45107608452, 0.0, 0.0, 0.0, 193.0, 1.0, 1.0, 1.0, 0.0, 0.0, 0.0, 257.0, 256.0, 0.0, 1.7620043684789288E9, 0.0, 2025-11-01 17:09:28.478
6.0, -147070.85753331872, -104445.99145007032, 20570.757457108197, -176595.0756186337, -178038.39481334627, -155666.75730547396, -187500.02235174447, -179883.93364953206, 0.0, 0.0, 0.0, 193.0, 1.0, 1.0, 1.0, 0.0, 0.0, 0.0, 257.0, 256.0, 0.0, 1.762004368479042E9, 0.0, 2025-11-01 17:09:28.479
7.0, 7354.752106040968, 61001.21867671236, 146226.38627605277, -21089.072059282313, -26320.609607769205, 24624.49218326714, -158600.06613732173, -39669.3619691565, 0.0, 0.0, 0.0, 193.0, 1.0, 1.0, 1.0, 0.0, 0.0, 0.0, 257.0, 256.0, 0.0, 1.7620043684792027E9, 0.0, 2025-11-01 17:09:28.479
8.0, 82865.00219881561, 155129.39901702394, 173182.32186821962, 105826.8822225192, 110674.126228586, 137453.46068781146, -94810.04265666517, 98820.2808881141, 0.0, 0.0, 0.0, 193.0, 1.0, 1.0, 1.0, 0.0, 0.0, 0.0, 257.0, 256.0, 0.0, 1.7620043684792483E9, 0.0, 2025-11-01 17:09:28.479
9.0, 3108.278287443911, 121141.00112211719, 163998.72767910096, 28565.32824818233, 44999.94009732486, 60765.65364189788, -127827.41371720002, 47567.864962561725, 0.0, 0.0, 0.0, 193.0, 1.0, 1.0, 1.0, 0.0, 0.0, 0.0, 257.0, 256.0, 0.0, 1.762004368480131E9, 0.0, 2025-11-01 17:09:28.480
10.0, -135699.80987308145, -41426.38789729928, 65284.68463238295, -139251.25619784073, -128935.74731776088, -118839.12907113184, -179925.08321107426, -123786.08420921376, 0.0, 0.0, 0.0, 193.0, 1.0, 1.0, 1.0, 0.0, 0.0, 0.0, 257.0, 256.0, 0.0, 1.762004368480296E9, 0.0, 2025-11-01 17:09:28.480
11.0, -147856.4989991783, -104945.24001422407, 19390.11596323442, -176874.4500725806, -178364.28324750465, -156374.92762505147, -187500.02235174447, -180059.08191908384, 0.0, 0.0, 0.0, 193.0, 1.0, 1.0, 1.0, 0.0, 0.0, 0.0, 257.0, 256.0, 0.0, 1.7620043684806504E9, 0.0, 2025-11-01 17:09:28.480
12.0, 6212.3991504191345, 59899.791765188194, 145283.41088097225, -21937.700741016954, -27544.032340530437, 23264.7908645619, -158728.74513015093, -40452.0977082369, 0.0, 0.0, 0.0, 193.0, 1.0, 1.0, 1.0, 0.0, 0.0, 0.0, 257.0, 256.0, 0.0, 1.7620043684808133E9, 0.0, 2025-11-01 17:09:28.480
13.0, 82933.44324033776, 154998.21662881575, 173098.2569573232, 105918.36791257476, 110473.22874942169, 137400.17412903003, -94157.41642205912, 99171.15857257349, 0.0, 0.0, 0.0, 193.0, 1.0, 1.0, 1.0, 0.0, 0.0, 0.0, 257.0, 256.0, 0.0, 1.7620043684809813E9, 0.0, 2025-11-01 17:09:28.480
14.0, 4142.404096413147, 121790.22989156604, 163872.50737816186, 29641.184764049623, 46255.50463861282, 62067.97803258635, -126827.01669061383, 49685.558639235336, 0.0, 0.0, 0.0, 193.0, 1.0, 1.0, 1.0, 0.0, 0.0, 0.0, 257.0, 256.0, 0.0, 1.762004368481171E9, 0.0, 2025-11-01 17:09:28.481
15.0, -134715.39434378082, -39963.66738839953, 65170.55662519415, -138383.87440250808, -127657.16047968394, -117538.48106127752, -179623.893454539, -121905.98957610007, 0.0, 0.0, 0.0, 193.0, 1.0, 1.0, 1.0, 0.0, 0.0, 0.0, 257.0, 256.0, 0.0, 1.762004368496786E9, 0.0, 2025-11-01 17:09:28.496
16.0, -147866.46787720537, -104766.8283899818, 17954.731637803514, -177144.32503513398, -178358.67295964636, -156333.4427873424, -187500.02235174447, -179942.42816477158, 0.0, 0.0, 0.0, 193.0, 1.0, 1.0, 1.0, 0.0, 0.0, 0.0, 257.0, 256.0, 0.0, 1.76200436849744E9, 0.0, 2025-11-01 17:09:28.497
17.0, 5943.351202410603, 59554.34555463142, 144268.23935130113, -22957.700247490437, -27727.92014216425, 22893.081354270143, -158686.38857440813, -40500.84686289392, 0.0, 0.0, 0.0, 193.0, 1.0, 1.0, 1.0, 0.0, 0.0, 0.0, 257.0, 256.0, 0.0, 1.7620043684974847E9, 0.0, 2025-11-01 17:09:28.497
18.0, 83302.15761687252, 155021.12716688242, 172949.34963576196, 105883.29802552439, 111231.22110739007, 137596.69066628107, -93249.22034135107, 99684.55579096745, 0.0, 0.0, 0.0, 193.0, 1.0, 1.0, 1.0, 0.0, 0.0, 0.0, 257.0, 256.0, 0.0, 1.762004368497532E9, 0.0, 2025-11-01 17:09:28.497
19.0, 4881.241009383322, 122672.31913475027, 163780.14997007253, 30313.122905865064, 47529.37525860969, 63271.2841953378, -125966.65334304016, 50431.481055197844, 0.0, 0.0, 0.0, 193.0, 1.0, 1.0, 1.0, 0.0, 0.0, 0.0, 257.0, 256.0, 0.0, 1.7620043684975677E9, 0.0, 2025-11-01 17:09:28.497
20.0, -134241.60441656166, -38651.016491772716, 65193.04248011619, -137818.66584046674, -126850.75424322537, -116650.24508836807, -179320.31206134704, -121366.57492716014, 0.0, 0.0, 0.0, 193.0, 1.0, 1.0, 1.0, 0.0, 0.0, 0.0, 257.0, 256.0, 0.0, 1.76200436849761E9, 0.0, 2025-11-01 17:09:28.497
21.0, -148700.9032012109, -105370.01256585271, 16412.953008765344, -177576.4736624329, -178716.54674012028, -157128.36022715096, -187500.02235174447, -180389.10542596644, 0.0, 0.0, 0.0, 193.0, 1.0, 1.0, 1.0, 0.0, 0.0, 0.0, 257.0, 256.0, 0.0, 1.7620043684976432E9, 0.0, 2025-11-01 17:09:28.497
22.0, 4730.769065710195, 58161.04956400986, 143171.66276832376, -24478.535291973985, -29103.13357152147, 21275.284442339474, -159215.588476132, -42290.75220713046, 0.0, 0.0, 0.0, 193.0, 1.0, 1.0, 1.0, 0.0, 0.0, 0.0, 257.0, 256.0, 0.0, 1.7620043684976852E9, 0.0, 2025-11-01 17:09:28.497
23.0, 83387.96596383644, 154740.8809949018, 172824.42573600123, 105703.63470359263, 111171.60900492776, 137395.97200107243, -93693.79653856714, 99323.91039418106, 0.0, 0.0, 0.0, 193.0, 1.0, 1.0, 1.0, 0.0, 0.0, 0.0, 257.0, 256.0, 0.0, 1.7620043684977183E9, 0.0, 2025-11-01 17:09:28.497
24.0, 6197.445833378534, 123048.543697422, 163612.93656980238, 32043.259685428107, 49397.89168809554, 64482.99461400445, -125246.68130239027, 52450.02239346771, 0.0, 0.0, 0.0, 193.0, 1.0, 1.0, 1.0, 0.0, 0.0, 0.0, 257.0, 256.0, 0.0, 1.7620043684977612E9, 0.0, 2025-11-01 17:09:28.497
25.0, -133142.65854867204, -37785.75811216332, 64891.83037183647, -136478.0082080374, -125301.80070421705, -115482.36644057828, -178955.57629532533, -119540.21388771701, 0.0, 0.0, 0.0, 193.0, 1.0, 1.0, 1.0, 0.0, 0.0, 0.0, 257.0, 256.0, 0.0, 1.7620043684977992E9, 0.0, 2025-11-01 17:09:28.497
26.0, -149175.7660121639, -105834.99590575647, 14587.418983867048, -177718.6531089131, -178767.57577271175, -157749.24698463047, -187500.02235174447, -180283.11345375938, 0.0, 0.0, 0.0, 193.0, 1.0, 1.0, 1.0, 0.0, 0.0, 0.0, 257.0, 256.0, 0.0, 1.7620043684978456E9, 0.0, 2025-11-01 17:09:28.497
27.0, 3827.8256449491555, 56985.86189578318, 141888.3820639112, -25352.06381703184, -29874.82754884095, 19728.834298710146, -159237.04615080907, -42564.33755926342, 0.0, 0.0, 0.0, 193.0, 1.0, 1.0, 1.0, 0.0, 0.0, 0.0, 257.0, 256.0, 0.0, 1.762004368497883E9, 0.0, 2025-11-01 17:09:28.497
28.0, 83164.60498149454, 154490.20618083552, 172633.98887324202, 105300.6998062968, 110802.2017243149, 136874.19287850772, -93575.37699644292, 99348.60907180418, 0.0, 0.0, 0.0, 193.0, 1.0, 1.0, 1.0, 0.0, 0.0, 0.0, 257.0, 256.0, 0.0, 1.762004368497929E9, 0.0, 2025-11-01 17:09:28.497
29.0, 6414.861251695305, 123345.4195672774, 163546.5518887701, 32139.014558674644, 49583.61233277468, 64596.34031013731, -125071.71184679412, 52780.515286983886, 0.0, 0.0, 0.0, 193.0, 1.0, 1.0, 1.0, 0.0, 0.0, 0.0, 257.0, 256.0, 0.0, 1.7620043684979663E9, 0.0, 2025-11-01 17:09:28.497
30.0, -132666.25346735163, -37092.8540340488, 65316.62527520958, -136001.3125540391, -124675.14719666805, -114863.0666569551, -178690.30579212974, -118807.43429749421, 0.0, 0.0, 0.0, 193.0, 1.0, 1.0, 1.0, 0.0, 0.0, 0.0, 257.0, 256.0, 0.0, 1.7620043684993236E9, 0.0, 2025-11-01 17:09:28.499
31.0, -149789.3437492065, -106874.88846479518, 13802.269256385478, -178068.16733696073, -179144.6944051617, -158365.05989611865, -187500.02235174447, -180493.1527964059, 0.0, 0.0, 0.0, 193.0, 1.0, 1.0, 1.0, 0.0, 0.0, 0.0, 257.0, 256.0, 0.0, 1.7620043685153494E9, 0.0, 2025-11-01 17:09:28.515
32.0, 2838.7609528018183, 55444.44089465629, 141162.84443889195, -26711.29574910352, -31593.453180009506, 18464.239652662236, -159649.12291158712, -43672.715863313184, 0.0, 0.0, 0.0, 193.0, 1.0, 1.0, 1.0, 0.0, 0.0, 0.0, 257.0, 256.0, 0.0, 1.762004368515412E9, 0.0, 2025-11-01 17:09:28.515
33.0, 83376.56657416423, 154181.14861025198, 172589.15127386467, 105282.61724503247, 110091.59506459178, 136767.6868161782, -93538.60837681394, 99283.67725416152, 0.0, 0.0, 0.0, 193.0, 1.0, 1.0, 1.0, 0.0, 0.0, 0.0, 257.0, 256.0, 0.0, 1.762004368515468E9, 0.0, 2025-11-01 17:09:28.515
34.0, 7556.901282894765, 123956.85153685231, 163713.38530938452, 33754.77746185988, 50413.666714866966, 66024.19209768678, -124203.23481598316, 54341.583471486985, 0.0, 0.0, 0.0, 193.0, 1.0, 1.0, 1.0, 0.0, 0.0, 0.0, 257.0, 256.0, 0.0, 1.7620043685155113E9, 0.0, 2025-11-01 17:09:28.515
35.0, -131875.04641712265, -35910.67026980761, 66395.29811087824, -134854.04221463707, -123768.18046190507, -113670.73520073119, -178340.70215710427, -117505.04285157239, 0.0, 0.0, 0.0, 193.0, 1.0, 1.0, 1.0, 0.0, 0.0, 0.0, 257.0, 256.0, 0.0, 1.7620043685155635E9, 0.0, 2025-11-01 17:09:28.515
36.0, -150292.7273860845, -107332.94276391779, 13584.943245046526, -178450.6727398244, -179580.08403540662, -158834.87121282474, -187500.02235174447, -180614.94745194286, 0.0, 0.0, 0.0, 193.0, 1.0, 1.0, 1.0, 0.0, 0.0, 0.0, 257.0, 256.0, 0.0, 1.7620043685156033E9, 0.0, 2025-11-01 17:09:28.515
37.0, 2049.1408764291855, 54446.86018787148, 140723.69971557852, -28020.325663128577, -33255.01480758367, 17432.97486698328, -159951.5420140674, -44222.12174202463, 0.0, 0.0, 0.0, 193.0, 1.0, 1.0, 1.0, 0.0, 0.0, 0.0, 257.0, 256.0, 0.0, 1.7620043685156631E9, 0.0, 2025-11-01 17:09:28.515
38.0, 83590.33865813479, 154100.39175753496, 172628.42328887264, 105231.83408163, 109895.77143141883, 136821.42040984874, -93668.85199175501, 100205.28438154273, 0.0, 0.0, 0.0, 193.0, 1.0, 1.0, 1.0, 0.0, 0.0, 0.0, 257.0, 256.0, 0.0, 1.7620043685157068E9, 0.0, 2025-11-01 17:09:28.515
39.0, 8373.142286913668, 124612.83053312666, 164049.26497331442, 34450.20728709785, 51364.53227574018, 67025.72906324019, -123877.97223066953, 56428.90112744584, 0.0, 0.0, 0.0, 193.0, 1.0, 1.0, 1.0, 0.0, 0.0, 0.0, 257.0, 256.0, 0.0, 1.7620043685157585E9, 0.0, 2025-11-01 17:09:28.515
40.0, -131043.29330245177, -34444.77581319521, 68160.72829493623, -134154.54437190824, -122845.16517462317, -112594.20813253024, -178056.4773746106, -115754.96831595521, 0.0, 0.0, 0.0, 193.0, 1.0, 1.0, 1.0, 0.0, 0.0, 0.0, 257.0, 256.0, 0.0, 1.7620043685158005E9, 0.0, 2025-11-01 17:09:28.515
41.0, -150800.00022649768, -107253.70582982372, 14102.676701864804, -178757.11515630665, -179736.18861868247, -159192.49912410966, -187500.02235174447, -180546.12643076497, 0.0, 0.0, 0.0, 193.0, 1.0, 1.0, 1.0, 0.0, 0.0, 0.0, 257.0, 256.0, 0.0, 1.7620043685158525E9, 0.0, 2025-11-01 17:09:28.515
42.0, 923.5517291488326, 53526.16948201293, 140491.42038719897, -29657.34507529081, -34492.3403253961, 16222.650256472858, -160431.03163612267, -44797.18742337077, 0.0, 0.0, 0.0, 193.0, 1.0, 1.0, 1.0, 0.0, 0.0, 0.0, 257.0, 256.0, 0.0, 1.762004368515895E9, 0.0, 2025-11-01 17:09:28.515
43.0, 83267.82533738916, 153850.2533853356, 172628.87032376174, 104303.58848614556, 109057.46925562255, 136481.83035633925, -94430.51003581406, 100002.95639073329, 0.0, 0.0, 0.0, 193.0, 1.0, 1.0, 1.0, 0.0, 0.0, 0.0, 257.0, 256.0, 0.0, 1.7620043685159512E9, 0.0, 2025-11-01 17:09:28.515
44.0, 8808.844841580969, 124749.35498825969, 164143.96931457156, 34988.660811026195, 51577.00795853233, 67613.26701799239, -123705.37205998566, 57258.195550226636, 0.0, 0.0, 0.0, 193.0, 1.0, 1.0, 1.0, 0.0, 0.0, 0.0, 257.0, 256.0, 0.0, 1.762004368515995E9, 0.0, 2025-11-01 17:09:28.515
45.0, -130648.65090234888, -34178.410074521315, 68953.3211533214, -133583.3902458418, -122396.16333200496, -111979.64691873157, -177808.4624181345, -114840.04436016612, 0.0, 0.0, 0.0, 193.0, 1.0, 1.0, 1.0, 0.0, 0.0, 0.0, 257.0, 256.0, 0.0, 1.7620043685160494E9, 0.0, 2025-11-01 17:09:28.516
46.0, -151600.95263730915, -108188.07580328891, 13586.239646224934, -179042.14460160074, -179985.70114203705, -159910.9065426477, -187500.02235174447, -180822.90808235505, 0.0, 0.0, 0.0, 193.0, 1.0, 1.0, 1.0, 0.0, 0.0, 0.0, 257.0, 256.0, 0.0, 1.7620043685161471E9, 0.0, 2025-11-01 17:09:28.516
47.0, -120.5653095919263, 52185.82477400599, 139756.71854695305, -30580.986211417465, -35443.58586592506, 14692.338072340259, -160593.72998401284, -46184.87312613406, 0.0, 0.0, 0.0, 193.0, 1.0, 1.0, 1.0, 0.0, 0.0, 0.0, 257.0, 256.0, 0.0, 1.7620043685162203E9, 0.0, 2025-11-01 17:09:28.516
48.0, 83363.46845191342, 153647.9253945262, 172617.6944515341, 104452.652269918, 110912.21701052392, 136210.83780656313, -94108.35434297971, 99400.37571196267, 0.0, 0.0, 0.0, 193.0, 1.0, 1.0, 1.0, 0.0, 0.0, 0.0, 257.0, 256.0, 0.0, 1.7620043685162568E9, 0.0, 2025-11-01 17:09:28.516
49.0, 9636.66404922772, 125394.47103672875, 164361.07180846596, 36065.00906527151, 56041.54539603536, 68422.80249867469, -123267.16610993935, 57559.45236199527, 0.0, 0.0, 0.0, 193.0, 1.0, 1.0, 1.0, 0.0, 0.0, 0.0, 257.0, 256.0, 0.0, 1.7620043685162973E9, 0.0, 2025-11-01 17:09:28.516
50.0, -129794.56839496714, -32810.10333420078, 70221.78265116009, -132554.047710186, -119548.59579188774, -110837.49512880984, -177555.418319156, -114060.90725194303, 0.0, 0.0, 0.0, 193.0, 1.0, 1.0, 1.0, 0.0, 0.0, 0.0, 257.0, 256.0, 0.0, 1.76200436851633E9, 0.0, 2025-11-01 17:09:28.516
51.0, -152041.37141005654, -108465.88563512394, 13575.846085053217, -179316.55696827854, -179944.48452526148, -160239.6783518408, -187500.02235174447, -181235.90126465575, 0.0, 0.0, 0.0, 193.0, 1.0, 1.0, 1.0, 0.0, 0.0, 0.0, 257.0, 256.0, 0.0, 1.762004368516365E9, 0.0, 2025-11-01 17:09:28.516
52.0, -1236.0961718673911, 50992.778061959514, 139295.6914658179, -31717.50536173646, -35888.49733930795, 13598.153126019613, -161291.95377730773, -48231.97999381781, 0.0, 0.0, 0.0, 193.0, 1.0, 1.0, 1.0, 0.0, 0.0, 0.0, 257.0, 256.0, 0.0, 1.7620043685164096E9, 0.0, 2025-11-01 17:09:28.516
53.0, 83157.07244361311, 153492.9160467286, 172691.768132659, 104311.21043100482, 111197.13469709572, 135997.3115917816, -95236.6256995947, 97992.75225314526, 0.0, 0.0, 0.0, 193.0, 1.0, 1.0, 1.0, 0.0, 0.0, 0.0, 257.0, 256.0, 0.0, 1.7620043685164506E9, 0.0, 2025-11-01 17:09:28.516
54.0, 10115.147842782479, 125753.64121838108, 164509.9344265383, 36944.997244476945, 57292.728995410085, 69097.42284982477, -123465.38137976902, 57205.93717169013, 0.0, 0.0, 0.0, 193.0, 1.0, 1.0, 1.0, 0.0, 0.0, 0.0, 257.0, 256.0, 0.0, 1.7620043685164986E9, 0.0, 2025-11-01 17:09:28.516
55.0, -129253.90204833771, -32110.44902926076, 70846.60331566374, -131760.69489248932, -118438.25053432591, -110118.5959718938, -177396.13978816746, -113919.9347996634, 0.0, 0.0, 0.0, 193.0, 1.0, 1.0, 1.0, 0.0, 0.0, 0.0, 257.0, 256.0, 0.0, 1.762004368516538E9, 0.0, 2025-11-01 17:09:28.516
56.0, -152583.28945437545, -109258.81376967595, 12773.083182940863, -179705.54437703424, -180162.45873718962, -160951.2461365755, -187500.02235174447, -181593.19389977385, 0.0, 0.0, 0.0, 193.0, 1.0, 1.0, 1.0, 0.0, 0.0, 0.0, 257.0, 256.0, 0.0, 1.7620043685165744E9, 0.0, 2025-11-01 17:09:28.516
57.0, -2213.694419109156, 49557.63960571762, 138525.2938896768, -33232.126621261436, -36971.26054421193, 12085.275302562155, -161917.2214767005, -49727.75873276696, 0.0, 0.0, 0.0, 193.0, 1.0, 1.0, 1.0, 0.0, 0.0, 0.0, 257.0, 256.0, 0.0, 1.7620043685166128E9, 0.0, 2025-11-01 17:09:28.516
58.0, 83024.32543329304, 153270.69500335396, 172718.27730158297, 103766.65488084017, 110447.09956015344, 135796.2576504061, -96335.92919539561, 97239.78903767932, 0.0, 0.0, 0.0, 193.0, 1.0, 1.0, 1.0, 0.0, 0.0, 0.0, 257.0, 256.0, 0.0, 1.7620043685166533E9, 0.0, 2025-11-01 17:09:28.516
59.0, 10849.827331283966, 126387.1790632223, 164679.11478032052, 37702.31905011166, 57456.880206689864, 70081.36899249184, -123593.76979992031, 57969.00337564986, 0.0, 0.0, 0.0, 193.0, 1.0, 1.0, 1.0, 0.0, 0.0, 0.0, 257.0, 256.0, 0.0, 1.762004368516688E9, 0.0, 2025-11-01 17:09:28.516
60.0, -128520.27309182563, -30882.488892375102, 71836.204449678, -131052.61397988963, -117848.79032955055, -109087.62175889275, -177196.85163460395, -112925.41628186898, 0.0, 0.0, 0.0, 193.0, 1.0, 1.0, 1.0, 0.0, 0.0, 0.0, 257.0, 256.0, 0.0, 1.7620043685167224E9, 0.0, 2025-11-01 17:09:28.516
61.0, -153248.25385192083, -109550.45933132879, 12352.356297058619, -180036.50665718399, -180402.73999008417, -161491.84542797154, -187500.02235174447, -181732.46761947486, 0.0, 0.0, 0.0, 193.0, 1.0, 1.0, 1.0, 0.0, 0.0, 0.0, 257.0, 256.0, 0.0, 1.7620043685168529E9, 0.0, 2025-11-01 17:09:28.516
62.0, -3219.4111608756975, 48724.63479335723, 137893.0971495029, -34495.13429345302, -37976.35143713372, 10896.989512084665, -162127.19376411365, -50450.03300309575, 0.0, 0.0, 0.0, 193.0, 1.0, 1.0, 1.0, 0.0, 0.0, 0.0, 257.0, 256.0, 0.0, 1.7620043685168884E9, 0.0, 2025-11-01 17:09:28.516
63.0, 83227.48043864733, 153200.77874669776, 172690.94111811413, 103607.51046031839, 111270.9625090316, 135709.75639936407, -95764.21627571777, 97608.86104212535, 0.0, 0.0, 0.0, 193.0, 1.0, 1.0, 1.0, 0.0, 0.0, 0.0, 257.0, 256.0, 0.0, 1.7620043685169349E9, 0.0, 2025-11-01 17:09:28.516
64.0, 11902.59449512893, 127132.87796174026, 164709.71431847982, 38870.376511857095, 60431.24919310203, 71252.063960083, -122521.8248393327, 59644.691305719774, 0.0, 0.0, 0.0, 193.0, 1.0, 1.0, 1.0, 0.0, 0.0, 0.0, 257.0, 256.0, 0.0, 1.7620043685169704E9, 0.0, 2025-11-01 17:09:28.516
65.0, -127646.65515978995, -29351.10382450865, 72346.51712733712, -129997.29871717677, -115692.18226578025, -107898.71011957052, -176827.95844411355, -111349.99827742556, 0.0, 0.0, 0.0, 193.0, 1.0, 1.0, 1.0, 0.0, 0.0, 0.0, 257.0, 256.0, 0.0, 1.7620043685170045E9, 0.0, 2025-11-01 17:09:28.517
66.0, -153699.33440677339, -109753.74844714982, 11257.500798404313, -180303.4088377248, -180400.19189121627, -161698.8672851166, -187500.02235174447, -181800.2604604078, 0.0, 0.0, 0.0, 193.0, 1.0, 1.0, 1.0, 0.0, 0.0, 0.0, 257.0, 256.0, 0.0, 1.7620043685170379E9, 0.0, 2025-11-01 17:09:28.517
67.0, -4317.619421198299, 47498.21692683899, 136768.62558944532, -35948.89175282619, -38680.31962875362, 9738.856224877385, -162252.98938190812, -51608.322752514214, 0.0, 0.0, 0.0, 193.0, 1.0, 1.0, 1.0, 0.0, 0.0, 0.0, 257.0, 256.0, 0.0, 1.7620043685170715E9, 0.0, 2025-11-01 17:09:28.517
68.0, 83088.38553290196, 152958.9999269247, 172592.5263872774, 103151.93720483032, 111400.60262687238, 135443.86004732372, -95438.50665551504, 97037.41634338097, 0.0, 0.0, 0.0, 193.0, 1.0, 1.0, 1.0, 0.0, 0.0, 0.0, 257.0, 256.0, 0.0, 1.7620043685171049E9, 0.0, 2025-11-01 17:09:28.517
69.0, 12573.01271832141, 127538.36095790399, 164771.31572619866, 39670.39014940145, 61446.01839137297, 72182.34356431289, -121860.88375578925, 60277.91622613862, 0.0, 0.0, 0.0, 193.0, 1.0, 1.0, 1.0, 0.0, 0.0, 0.0, 257.0, 256.0, 0.0, 1.7620043685171385E9, 0.0, 2025-11-01 17:09:28.517
70.0, -126859.4937753074, -28266.68659051497, 73151.64931436174, -129072.69645603854, -114584.51921755305, -106732.59725959269, -176557.23411527087, -110308.40698580827, 0.0, 0.0, 0.0, 193.0, 1.0, 1.0, 1.0, 0.0, 0.0, 0.0, 257.0, 256.0, 0.0, 1.7620043685171735E9, 0.0, 2025-11-01 17:09:28.517
71.0, -153989.21418061428, -110205.14192642474, 10811.941124432222, -180486.29081085813, -180576.74832066876, -162190.89623581126, -187500.02235174447, -181951.82763955923, 0.0, 0.0, 0.0, 193.0, 1.0, 1.0, 1.0, 0.0, 0.0, 0.0, 257.0, 256.0, 0.0, 1.7620043685172071E9, 0.0, 2025-11-01 17:09:28.517
72.0, -4951.514893950808, 46359.17202939654, 136188.3519516411, -36828.20937969797, -39729.979900119295, 8570.418783476209, -162670.83289275563, -52659.41353552503, 0.0, 0.0, 0.0, 193.0, 1.0, 1.0, 1.0, 0.0, 0.0, 0.0, 257.0, 256.0, 0.0, 1.7620043685172405E9, 0.0, 2025-11-01 17:09:28.517
73.0, 83301.0623813942, 152745.0043255096, 172601.3329745928, 103197.24419084123, 111451.6540112083, 135341.6902234185, -95856.1713524069, 96775.85622976498, 0.0, 0.0, 0.0, 193.0, 1.0, 1.0, 1.0, 0.0, 0.0, 0.0, 257.0, 256.0, 0.0, 1.7620043685172737E9, 0.0, 2025-11-01 17:09:28.517
74.0, 13740.466682966553, 128092.79597911787, 164903.30277720725, 41103.47224515346, 63175.48461860236, 73362.40391283082, -121364.83149109263, 61844.393532799906, 0.0, 0.0, 0.0, 193.0, 1.0, 1.0, 1.0, 0.0, 0.0, 0.0, 257.0, 256.0, 0.0, 1.762004368517307E9, 0.0, 2025-11-01 17:09:28.517
75.0, -125835.42625134304, -26957.47786253427, 74202.1589520167, -127885.28238359481, -113142.6528862301, -105520.23864033683, -176224.14841939788, -108603.86295364655, 0.0, 0.0, 0.0, 193.0, 1.0, 1.0, 1.0, 0.0, 0.0, 0.0, 257.0, 256.0, 0.0, 1.7620043685173392E9, 0.0, 2025-11-01 17:09:28.517
76.0, -154447.55905241478, -110056.9275089416, 10941.916518439832, -180720.157113094, -180719.7547816938, -162641.887383686, -187500.02235174447, -181874.31178978825, 0.0, 0.0, 0.0, 193.0, 1.0, 1.0, 1.0, 0.0, 0.0, 0.0, 257.0, 256.0, 0.0, 1.7620043685173995E9, 0.0, 2025-11-01 17:09:28.517
77.0, -5864.762468905744, 45696.64397199678, 135795.09535969442, -38044.03251934439, -40881.83234713464, 7224.553194588804, -162999.09061182628, -52983.82675454936, 0.0, 0.0, 0.0, 193.0, 1.0, 1.0, 1.0, 0.0, 0.0, 0.0, 257.0, 256.0, 0.0, 1.7620043685174344E9, 0.0, 2025-11-01 17:09:28.517
78.0, 83365.16718449202, 152699.42911856523, 172663.8955073232, 102890.84647784788, 110948.56094700826, 135061.7793276047, -96319.72418066552, 97279.91041897661, 0.0, 0.0, 0.0, 193.0, 1.0, 1.0, 1.0, 0.0, 0.0, 0.0, 257.0, 256.0, 0.0, 1.7620043685174675E9, 0.0, 2025-11-01 17:09:28.517
79.0, 14250.175863525375, 128773.60776348207, 165201.5421034744, 41567.00272166762, 63491.873561367225, 73767.48457759435, -121455.82544277019, 62726.88510738434, 0.0, 0.0, 0.0, 193.0, 1.0, 1.0, 1.0, 0.0, 0.0, 0.0, 257.0, 256.0, 0.0, 1.762004368517506E9, 0.0, 2025-11-01 17:09:28.517
80.0, -125226.43062191375, -25596.614253117354, 75834.46214609887, -127361.9609906627, -112426.4359386487, -104835.15767278167, -176029.4423734477, -107801.16710676755, 0.0, 0.0, 0.0, 193.0, 1.0, 1.0, 1.0, 0.0, 0.0, 0.0, 257.0, 256.0, 0.0, 1.7620043685175397E9, 0.0, 2025-11-01 17:09:28.517
81.0, -155179.9363112374, -110722.20483090937, 10894.687282405768, -181054.04747176738, -180944.83684835874, -163284.5000367761, -187500.02235174447, -182205.4081804047, 0.0, 0.0, 0.0, 193.0, 1.0, 1.0, 1.0, 0.0, 0.0, 0.0, 257.0, 256.0, 0.0, 1.762004368517576E9, 0.0, 2025-11-01 17:09:28.517
82.0, -7405.825842121344, 44010.20485284387, 135214.9558323569, -39566.9909795512, -42105.12096942913, 5511.157871622786, -163526.8376501605, -54956.94934808605, 0.0, 0.0, 0.0, 193.0, 1.0, 1.0, 1.0, 0.0, 0.0, 0.0, 257.0, 256.0, 0.0, 1.7620043685176084E9, 0.0, 2025-11-01 17:09:28.517
83.0, 82793.1860438807, 152348.68554457254, 172698.7195251846, 102290.12099386705, 110924.89044963008, 134591.20805158713, -96769.4412791063, 95934.38010625602, 0.0, 0.0, 0.0, 193.0, 1.0, 1.0, 1.0, 0.0, 0.0, 0.0, 257.0, 256.0, 0.0, 1.7620043685176432E9, 0.0, 2025-11-01 17:09:28.517
84.0, 14619.404330182593, 129115.83532283729, 165311.4232792167, 42262.54430562786, 65005.60075111398, 74476.16898729432, -121113.4414212038, 62602.00591111254, 0.0, 0.0, 0.0, 193.0, 1.0, 1.0, 1.0, 0.0, 0.0, 0.0, 257.0, 256.0, 0.0, 1.7620043685176759E9, 0.0, 2025-11-01 17:09:28.517
85.0, -124814.80089602483, -24984.355268997584, 76412.6347199243, -126632.62356908603, -111176.81696138585, -104044.39765744182, -175815.82675168835, -107484.37583260248, 0.0, 0.0, 0.0, 193.0, 1.0, 1.0, 1.0, 0.0, 0.0, 0.0, 257.0, 256.0, 0.0, 1.7620043685177095E9, 0.0, 2025-11-01 17:09:28.517
86.0, -155912.1571078488, -111636.88291750943, 10014.3638270335, -181430.11557222792, -181166.45439463313, -163726.8410595466, -187500.02235174447, -182526.91567264983, 0.0, 0.0, 0.0, 193.0, 1.0, 1.0, 1.0, 0.0, 0.0, 0.0, 257.0, 256.0, 0.0, 1.7620043685177429E9, 0.0, 2025-11-01 17:09:28.517
87.0, -8591.138850586278, 42346.34099559081, 134170.88349710507, -41160.64800747013, -43404.74079903851, 4342.698078477154, -163946.8939837091, -56418.93224941877, 0.0, 0.0, 0.0, 193.0, 1.0, 1.0, 1.0, 0.0, 0.0, 0.0, 257.0, 256.0, 0.0, 1.7620043685177784E9, 0.0, 2025-11-01 17:09:28.517
88.0, 82944.7755747766, 152039.22564258883, 172644.56124836937, 101818.14155794878, 110733.51481360375, 134539.5978736398, -97088.62418992809, 95536.51905495157, 0.0, 0.0, 0.0, 193.0, 1.0, 1.0, 1.0, 0.0, 0.0, 0.0, 257.0, 256.0, 0.0, 1.7620043685178113E9, 0.0, 2025-11-01 17:09:28.517
89.0, 15795.530771676395, 129625.72331735175, 165282.43306665815, 43315.57969040629, 66515.84106872571, 76074.78810248233, -120532.18430664352, 64035.691503964845, 0.0, 0.0, 0.0, 193.0, 1.0, 1.0, 1.0, 0.0, 0.0, 0.0, 257.0, 256.0, 0.0, 1.7620043685178463E9, 0.0, 2025-11-01 17:09:28.517
90.0, -123707.71899315347, -23612.092269908462, 76744.0663867076, -125437.78871748314, -109625.53884095418, -102333.10339845461, -175506.4786084269, -105731.5073289284, 0.0, 0.0, 0.0, 193.0, 1.0, 1.0, 1.0, 0.0, 0.0, 0.0, 257.0, 256.0, 0.0, 1.7620043685178783E9, 0.0, 2025-11-01 17:09:28.517
91.0, -156162.67545970387, -111631.02676046215, 9097.18234505443, -181564.44955640432, -181171.55059236893, -163879.45877068746, -187500.02235174447, -182440.0567936965, 0.0, 0.0, 0.0, 193.0, 1.0, 1.0, 1.0, 0.0, 0.0, 0.0, 257.0, 256.0, 0.0, 1.7620043685179417E9, 0.0, 2025-11-01 17:09:28.517
92.0, -9313.323713937249, 41545.29917780151, 133235.93237828402, -42030.64495690405, -43933.2701484287, 3565.214999343753, -164152.23946002, -56788.98773062084, 0.0, 0.0, 0.0, 193.0, 1.0, 1.0, 1.0, 0.0, 0.0, 0.0, 257.0, 256.0, 0.0, 1.7620043685179753E9, 0.0, 2025-11-01 17:09:28.517
93.0, 83136.46413522532, 151897.89556239793, 172564.5867067083, 102106.0990817665, 111192.55258948238, 134596.013676645, -96777.21968617674, 96212.6593247246, 0.0, 0.0, 0.0, 193.0, 1.0, 1.0, 1.0, 0.0, 0.0, 0.0, 257.0, 256.0, 0.0, 1.76200436851801E9, 0.0, 2025-11-01 17:09:28.518
94.0, 16588.32479576168, 129934.57972223518, 165165.91342281265, 44609.70099087965, 67936.49559456058, 76978.64794476604, -119760.22210839059, 65688.51359945699, 0.0, 0.0, 0.0, 193.0, 1.0, 1.0, 1.0, 0.0, 0.0, 0.0, 257.0, 256.0, 0.0, 1.7620043685180435E9, 0.0, 2025-11-01 17:09:28.518
95.0, -123065.93335460823, -22837.671379765437, 76547.39338724535, -124580.71107634439, -108467.36085025799, -101401.97442793542, -175234.5249336392, -104413.8496415436, 0.0, 0.0, 0.0, 193.0, 1.0, 1.0, 1.0, 0.0, 0.0, 0.0, 257.0, 256.0, 0.0, 1.7620043685180764E9, 0.0, 2025-11-01 17:09:28.518
96.0, -156627.70350309653, -112133.60573453973, 7464.230950383062, -181764.98940765733, -181352.48796373463, -164361.7423607996, -187500.02235174447, -182570.92625748232, 0.0, 0.0, 0.0, 193.0, 1.0, 1.0, 1.0, 0.0, 0.0, 0.0, 257.0, 256.0, 0.0, 1.762004368518112E9, 0.0, 2025-11-01 17:09:28.518
97.0, -10366.023822548847, 39980.67706593002, 131830.85701833453, -43127.17683639251, -45357.50095337641, 1961.38792769765, -164429.84812615492, -58147.48205512549, 0.0, 0.0, 0.0, 193.0, 1.0, 1.0, 1.0, 0.0, 0.0, 0.0, 257.0, 256.0, 0.0, 1.7620043685181453E9, 0.0, 2025-11-01 17:09:28.518
98.0, 82925.26250186712, 151551.59998555185, 172415.96995782494, 101903.81579444597, 110398.88684736335, 134101.97306894936, -96989.56125850216, 95349.47965734956, 0.0, 0.0, 0.0, 193.0, 1.0, 1.0, 1.0, 0.0, 0.0, 0.0, 257.0, 256.0, 0.0, 1.7620043685181806E9, 0.0, 2025-11-01 17:09:28.518
99.0, 17235.296039020544, 130381.9275357637, 165109.475268063, 45664.41275649223, 68545.02183735631, 77523.58347458643, -119397.4309441365, 66089.52624672964, 0.0, 0.0, 0.0, 193.0, 1.0, 1.0, 1.0, 0.0, 0.0, 0.0, 257.0, 256.0, 0.0, 1.7620043685182137E9, 0.0, 2025-11-01 17:09:28.518
100.0, -122473.27685037577, -21965.975697752918, 76988.3709536041, -123624.10111714616, -107591.93242692143, -100702.14130903975, -174955.53045934803, -103687.50735372394, 0.0, 0.0, 0.0, 193.0, 1.0, 1.0, 1.0, 0.0, 0.0, 0.0, 257.0, 256.0, 0.0, 1.762004368518247E9, 0.0, 2025-11-01 17:09:28.518
101.0, -157119.57599158003, -112592.1741237848, 6831.676582297872, -181927.86656950315, -181583.69440838034, -164731.70843502384, -187500.02235174447, -182800.59043176062, 0.0, 0.0, 0.0, 193.0, 1.0, 1.0, 1.0, 0.0, 0.0, 0.0, 257.0, 256.0, 0.0, 1.762004368518284E9, 0.0, 2025-11-01 17:09:28.518
102.0, -11219.681646785933, 39130.26024463895, 131198.95085083853, -44230.07896305072, -46755.13318242231, 962.6896336900752, -164905.53795165278, -59751.48794072723, 0.0, 0.0, 0.0, 193.0, 1.0, 1.0, 1.0, 0.0, 0.0, 0.0, 257.0, 256.0, 0.0, 1.7620043685183196E9, 0.0, 2025-11-01 17:09:28.518
103.0, 83062.99395120073, 151474.24059799203, 172459.04176939031, 101567.75731656043, 110231.44992964863, 134081.2082983504, -97722.58671791396, 94367.9251513392, 0.0, 0.0, 0.0, 193.0, 1.0, 1.0, 1.0, 0.0, 0.0, 0.0, 257.0, 256.0, 0.0, 1.7620043685183542E9, 0.0, 2025-11-01 17:09:28.518
104.0, 18285.872731908887, 131086.9909628619, 165331.69631143764, 46541.20463624056, 69885.16537966316, 79082.52824336628, -119198.20984580636, 66511.1024989012, 0.0, 0.0, 0.0, 193.0, 1.0, 1.0, 1.0, 0.0, 0.0, 0.0, 257.0, 256.0, 0.0, 1.7620043685183887E9, 0.0, 2025-11-01 17:09:28.518
105.0, -121268.80839691263, -19962.32062129028, 78436.47342163009, -122518.94146429795, -106078.76403078604, -98920.57316548505, -174651.23381033348, -102563.57223553327, 0.0, 0.0, 0.0, 193.0, 1.0, 1.0, 1.0, 0.0, 0.0, 0.0, 257.0, 256.0, 0.0, 1.7620043685184233E9, 0.0, 2025-11-01 17:09:28.518
106.0, -157404.15840198498, -112379.36316482583, 6722.287144933599, -182093.04596102788, -181531.72660252175, -164935.60104794515, -187500.02235174447, -182741.87239907653, 0.0, 0.0, 0.0, 193.0, 1.0, 1.0, 1.0, 0.0, 0.0, 0.0, 257.0, 256.0, 0.0, 1.7620043685184796E9, 0.0, 2025-11-01 17:09:28.518
107.0, -12394.735204545881, 37868.01253175885, 130284.78685436094, -45454.3287103568, -47418.91293751156, -333.242158084173, -165181.71610614256, -60282.56538898533, 0.0, 0.0, 0.0, 193.0, 1.0, 1.0, 1.0, 0.0, 0.0, 0.0, 257.0, 256.0, 0.0, 1.762004368518515E9, 0.0, 2025-11-01 17:09:28.518
108.0, 82765.67104645623, 151194.0391295003, 172404.8387890862, 101326.2690694653, 110382.07833553295, 133731.2693871581, -97989.35478798805, 94606.06063676604, 0.0, 0.0, 0.0, 193.0, 1.0, 1.0, 1.0, 0.0, 0.0, 0.0, 257.0, 256.0, 0.0, 1.76200436851855E9, 0.0, 2025-11-01 17:09:28.518
109.0, 18548.550432747656, 131252.30446485334, 165354.3833320598, 47322.93454682047, 71073.07119048492, 79305.95628094152, -119012.0421662381, 67619.6149134177, 0.0, 0.0, 0.0, 193.0, 1.0, 1.0, 1.0, 0.0, 0.0, 0.0, 257.0, 256.0, 0.0, 1.7620043685185869E9, 0.0, 2025-11-01 17:09:28.518
110.0, -120887.82291267192, -19605.98911118378, 79003.89480637251, -121776.84119663731, -105061.33497492493, -98494.28069523344, -174434.98068272838, -101457.33969895121, 0.0, 0.0, 0.0, 193.0, 1.0, 1.0, 1.0, 0.0, 0.0, 0.0, 257.0, 256.0, 0.0, 1.7620043685186217E9, 0.0, 2025-11-01 17:09:28.518
111.0, -158029.5378601, -113010.64348347706, 6776.668939193361, -182276.73259696158, -181661.3220168736, -165520.7697177851, -187500.02235174447, -182822.76336226027, 0.0, 0.0, 0.0, 193.0, 1.0, 1.0, 1.0, 0.0, 0.0, 0.0, 257.0, 256.0, 0.0, 1.762004368518657E9, 0.0, 2025-11-01 17:09:28.518
112.0, -13397.725033488874, 36715.154256243026, 130093.14299740113, -46546.412592698645, -48500.35738949268, -1804.8363095326795, -165341.50872725353, -61211.25801935888, 0.0, 0.0, 0.0, 193.0, 1.0, 1.0, 1.0, 0.0, 0.0, 0.0, 257.0, 256.0, 0.0, 1.7620043685186927E9, 0.0, 2025-11-01 17:09:28.518
113.0, 82734.6244734078, 150903.8687829815, 172448.46939426297, 101032.85772000048, 109731.77668235025, 133352.80965004084, -97414.55732757537, 94391.48388999508, 0.0, 0.0, 0.0, 193.0, 1.0, 1.0, 1.0, 0.0, 0.0, 0.0, 257.0, 256.0, 0.0, 1.762004368518728E9, 0.0, 2025-11-01 17:09:28.518
114.0, 19480.975804445246, 131815.45666640482, 165634.22717264024, 48274.67182572745, 71724.04339600127, 80313.14823784212, -117856.83695755446, 68679.15465583261, 0.0, 0.0, 0.0, 193.0, 1.0, 1.0, 1.0, 0.0, 0.0, 0.0, 257.0, 256.0, 0.0, 1.7620043685187633E9, 0.0, 2025-11-01 17:09:28.518
115.0, -119956.58218343047, -18268.393667744836, 80892.08077097902, -120841.55480164944, -104022.09061647543, -97253.20008435252, -174058.82317529002, -100190.91220985797, 0.0, 0.0, 0.0, 193.0, 1.0, 1.0, 1.0, 0.0, 0.0, 0.0, 257.0, 256.0, 0.0, 1.7620043685188005E9, 0.0, 2025-11-01 17:09:28.518
116.0, -158331.0181893132, -113368.09258080633, 7176.429888776528, -182597.7036473398, -181895.12126387612, -165777.61361332104, -187500.02235174447, -182946.92730270952, 0.0, 0.0, 0.0, 193.0, 1.0, 1.0, 1.0, 0.0, 0.0, 0.0, 257.0, 256.0, 0.0, 1.7620043685188348E9, 0.0, 2025-11-01 17:09:28.518
117.0, -14322.975495216311, 35479.30395356464, 129622.12468649444, -48329.299489176214, -50129.15135969536, -2936.43807607151, -165725.13171733997, -62622.34599856687, 0.0, 0.0, 0.0, 193.0, 1.0, 1.0, 1.0, 0.0, 0.0, 0.0, 257.0, 256.0, 0.0, 1.762004368518869E9, 0.0, 2025-11-01 17:09:28.518
118.0, 82862.74467262563, 150740.83515892448, 172496.59270007524, 100506.65295203363, 109242.27347877903, 133281.93226837306, -97722.00557255812, 93799.386179374, 0.0, 0.0, 0.0, 193.0, 1.0, 1.0, 1.0, 0.0, 0.0, 0.0, 257.0, 256.0, 0.0, 1.7620043685189085E9, 0.0, 2025-11-01 17:09:28.518
119.0, 20656.454045349845, 132500.00119209304, 165675.28732720463, 49514.72425636343, 72666.5047009593, 81498.14832188467, -117305.28531137531, 69781.721506324, 0.0, 0.0, 0.0, 193.0, 1.0, 1.0, 1.0, 0.0, 0.0, 0.0, 257.0, 256.0, 0.0, 1.762004368518943E9, 0.0, 2025-11-01 17:09:28.518
120.0, -118867.11345518989, -16746.17281510506, 81270.62991507411, -119627.36333934825, -102925.87166140934, -95974.14385964202, -173751.03965414045, -98828.77455100711, 0.0, 0.0, 0.0, 193.0, 1.0, 1.0, 1.0, 0.0, 0.0, 0.0, 257.0, 256.0, 0.0, 1.7620043689653125E9, 0.0, 2025-11-01 17:09:28.965
121.0, -158512.9166856905, -113204.41075616011, 6275.386366294189, -182662.12137486, -181992.57486970126, -165982.71322044294, -187500.02235174447, -182918.13825585108, 0.0, 0.0, 0.0, 193.0, 1.0, 1.0, 1.0, 0.0, 0.0, 0.0, 257.0, 256.0, 0.0, 1.7620043689665165E9, 0.0, 2025-11-01 17:09:28.966
122.0, -15198.62743599742, 34531.41117470398, 128468.95348655625, -49339.151303666986, -51422.579756090614, -4104.473186072491, -165959.15448178703, -63498.444974237085, 0.0, 0.0, 0.0, 193.0, 1.0, 1.0, 1.0, 0.0, 0.0, 0.0, 257.0, 256.0, 0.0, 1.7620043689665954E9, 0.0, 2025-11-01 17:09:28.966
123.0, 82855.86033533339, 150497.08938563935, 172360.20235540895, 100070.86099038852, 108805.69920607796, 132992.07484627664, -97680.16310693779, 93657.67611952736, 0.0, 0.0, 0.0, 193.0, 1.0, 1.0, 1.0, 0.0, 0.0, 0.0, 257.0, 256.0, 0.0, 1.762004368966665E9, 0.0, 2025-11-01 17:09:28.966
124.0, 21310.466088112127, 132803.76139924067, 165557.94066881426, 50010.08361698194, 73682.50324517528, 82377.42124526754, -116599.97601508809, 70676.17126419202, 0.0, 0.0, 0.0, 193.0, 1.0, 1.0, 1.0, 0.0, 0.0, 0.0, 257.0, 256.0, 0.0, 1.7620043689668183E9, 0.0, 2025-11-01 17:09:28.966
125.0, -118309.54918975226, -15840.547185009384, 81362.8532126967, -119049.43663471182, -101917.58446903044, -95041.3385082887, -173439.52339166682, -97875.76322266618, 0.0, 0.0, 0.0, 193.0, 1.0, 1.0, 1.0, 0.0, 0.0, 0.0, 257.0, 256.0, 0.0, 1.7620043689670665E9, 0.0, 2025-11-01 17:09:28.967
126.0, -159171.10850466593, -113718.43382339881, 5093.359064264187, -182917.24418607287, -182116.1353130502, -166446.6460283573, -187500.02235174447, -182963.9816837289, 0.0, 0.0, 0.0, 193.0, 1.0, 1.0, 1.0, 0.0, 0.0, 0.0, 257.0, 256.0, 0.0, 1.762004368967199E9, 0.0, 2025-11-01 17:09:28.967
127.0, -16345.987182377243, 33034.6489589988, 127344.90660964331, -50763.963253970534, -52558.80833373169, -5548.887616263344, -166253.92928766363, -64365.670307358545, 0.0, 0.0, 0.0, 193.0, 1.0, 1.0, 1.0, 0.0, 0.0, 0.0, 257.0, 256.0, 0.0, 1.7620043689677024E9, 0.0, 2025-11-01 17:09:28.967
131.0, -159511.34675876462, -114207.71350952549, 4847.691040955906, -183032.37802176215, -182257.8230211524, -166719.4490694343, -187500.02235174447, -183081.99889445293, 0.0, 0.0, 0.0, 193.0, 1.0, 1.0, 1.0, 0.0, 0.0, 0.0, 257.0, 256.0, 0.0, 1.7620043689679415E9, 0.0, 2025-11-01 17:09:28.967
132.0, -17405.906904447904, 31706.508303464452, 126526.72100385679, -51690.3983581541, -53906.35030345325, -6849.580329606572, -166681.2946416491, -65983.08723963347, 0.0, 0.0, 0.0, 193.0, 1.0, 1.0, 1.0, 0.0, 0.0, 0.0, 257.0, 256.0, 0.0, 1.7620043689681668E9, 0.0, 2025-11-01 17:09:28.968
133.0, 82523.44519179406, 149886.14915444245, 172262.905211795, 99685.36045376783, 107818.57911569825, 132207.7968368288, -98558.18433263116, 92458.7285469447, 0.0, 0.0, 0.0, 193.0, 1.0, 1.0, 1.0, 0.0, 0.0, 0.0, 257.0, 256.0, 0.0, 1.7620043689683297E9, 0.0, 2025-11-01 17:09:28.968
134.0, 22655.81758687706, 133710.1022851589, 165721.24251380475, 52036.671583255724, 75053.46984308599, 83691.7038192396, -116121.58162851115, 71987.50340789597, 0.0, 0.0, 0.0, 193.0, 1.0, 1.0, 1.0, 0.0, 0.0, 0.0, 257.0, 256.0, 0.0, 1.7620043689685102E9, 0.0, 2025-11-01 17:09:28.968
135.0, -116566.98484027205, -13280.177209398415, 83374.93489681899, -116922.1987631558, -99800.11430980139, -92852.78980169175, -172878.02521920507, -95613.1184831999, 0.0, 0.0, 0.0, 193.0, 1.0, 1.0, 1.0, 0.0, 0.0, 0.0, 257.0, 256.0, 0.0, 1.762004368968595E9, 0.0, 2025-11-01 17:09:28.968
136.0, -159704.8458105142, -113762.91379486487, 4967.205818558433, -183123.2825664619, -182224.89890156972, -166913.17163862844, -187500.02235174447, -183062.955208177, 0.0, 0.0, 0.0, 193.0, 1.0, 1.0, 1.0, 0.0, 0.0, 0.0, 257.0, 256.0, 0.0, 1.7620043689686992E9, 0.0, 2025-11-01 17:09:28.968
137.0, -18169.55425376347, 31256.03124571219, 126036.18962004062, -53016.34854273183, -54701.78183338426, -7877.693519317332, -166934.53990632773, -66855.31936351293, 0.0, 0.0, 0.0, 193.0, 1.0, 1.0, 1.0, 0.0, 0.0, 0.0, 257.0, 256.0, 0.0, 1.7620043689687908E9, 0.0, 2025-11-01 17:09:28.968
138.0, 82473.15376676962, 149841.93740390986, 172228.93056022294, 98818.3809898354, 107981.32216707733, 132122.2343590539, -99048.60395772505, 92058.92289387262, 0.0, 0.0, 0.0, 193.0, 1.0, 1.0, 1.0, 0.0, 0.0, 0.0, 257.0, 256.0, 0.0, 1.7620043689689057E9, 0.0, 2025-11-01 17:09:28.968
139.0, 23223.77541348641, 134295.8968038436, 165766.90712772694, 52113.31571499297, 76750.615447833, 84819.55049270994, -116125.29201809074, 72499.38070766696, 0.0, 0.0, 0.0, 193.0, 1.0, 1.0, 1.0, 0.0, 0.0, 0.0, 257.0, 256.0, 0.0, 1.7620043689698167E9, 0.0, 2025-11-01 17:09:28.969
140.0, -115978.06107736363, -11782.90090357076, 84223.72004076482, -116453.57208890583, -98191.74983403085, -91663.36407224704, -172629.02678597294, -94760.6676531634, 0.0, 0.0, 0.0, 193.0, 1.0, 1.0, 1.0, 0.0, 0.0, 0.0, 257.0, 256.0, 0.0, 1.762004368969875E9, 0.0, 2025-11-01 17:09:28.969
141.0, -160280.60439593846, -113522.7443006926, 4713.714684690796, -183304.48815876106, -182190.41015987517, -167128.73186215543, -187500.02235174447, -183079.83077524076, 0.0, 0.0, 0.0, 193.0, 1.0, 1.0, 1.0, 0.0, 0.0, 0.0, 257.0, 256.0, 0.0, 1.7620043689699304E9, 0.0, 2025-11-01 17:09:28.969
142.0, -19427.644542174883, 30319.8060774572, 125358.77530083363, -54207.02596986604, -55465.76445886665, -8970.693823181848, -167297.37577407074, -67587.38369791314, 0.0, 0.0, 0.0, 193.0, 1.0, 1.0, 1.0, 0.0, 0.0, 0.0, 257.0, 256.0, 0.0, 1.7620043689699736E9, 0.0, 2025-11-01 17:09:28.969
143.0, 82211.34778396461, 149578.96913039318, 172245.02381623077, 98500.6509424032, 107936.68573340008, 131834.20978000283, -99509.09459699328, 92096.25030711298, 0.0, 0.0, 0.0, 193.0, 1.0, 1.0, 1.0, 0.0, 0.0, 0.0, 257.0, 256.0, 0.0, 1.762004368970031E9, 0.0, 2025-11-01 17:09:28.970
144.0, 23960.623021200066, 134525.2927571884, 165897.41896360146, 53160.51729446856, 77831.27758875818, 85445.75696536982, -115785.8807785369, 73697.90359710499, 0.0, 0.0, 0.0, 193.0, 1.0, 1.0, 1.0, 0.0, 0.0, 0.0, 257.0, 256.0, 0.0, 1.7620043689700751E9, 0.0, 2025-11-01 17:09:28.970
145.0, -115164.85991059065, -11142.769294115222, 85326.62216742303, -115453.10800708628, -97093.49687021934, -90823.31846038323, -172357.05075944075, -93507.78532121007, 0.0, 0.0, 0.0, 193.0, 1.0, 1.0, 1.0, 0.0, 0.0, 0.0, 257.0, 256.0, 0.0, 1.762004368970128E9, 0.0, 2025-11-01 17:09:28.970
146.0, -160738.1893084275, -114412.36608175827, 4604.9957996601825, -183493.5615651085, -182382.8586796354, -167569.37415234736, -187500.02235174447, -183207.25807038046, 0.0, 0.0, 0.0, 193.0, 1.0, 1.0, 1.0, 0.0, 0.0, 0.0, 257.0, 256.0, 0.0, 1.7620043689701705E9, 0.0, 2025-11-01 17:09:28.970
147.0, -20652.94482147036, 28489.086447845275, 124699.24237719088, -55662.34805135108, -57218.141224162726, -10519.245030789976, -167654.80251965555, -69357.4183413289, 0.0, 0.0, 0.0, 193.0, 1.0, 1.0, 1.0, 0.0, 0.0, 0.0, 257.0, 256.0, 0.0, 1.7620043689702232E9, 0.0, 2025-11-01 17:09:28.970
148.0, 82015.99353742522, 149173.955520863, 172319.6786427115, 97842.16855074985, 106578.34787110661, 131316.87865458473, -99664.28275874649, 90905.9528596345, 0.0, 0.0, 0.0, 193.0, 1.0, 1.0, 1.0, 0.0, 0.0, 0.0, 257.0, 256.0, 0.0, 1.7620043689702642E9, 0.0, 2025-11-01 17:09:28.970
149.0, 24599.994671344124, 134844.6768337103, 166171.8760337682, 53777.492496668405, 77639.90195273185, 86087.47554868169, -115160.97070705543, 74083.96292733705, 0.0, 0.0, 0.0, 193.0, 1.0, 1.0, 1.0, 0.0, 0.0, 0.0, 257.0, 256.0, 0.0, 1.7620043689703557E9, 0.0, 2025-11-01 17:09:28.970
150.0, -114523.67776914571, -10257.148475307045, 86973.74456807907, -114653.5637561755, -96563.06762255044, -89917.91634773211, -172122.69271882687, -92622.92446171338, 0.0, 0.0, 0.0, 193.0, 1.0, 1.0, 1.0, 0.0, 0.0, 0.0, 257.0, 256.0, 0.0, 1.762004368970399E9, 0.0, 2025-11-01 17:09:28.970
151.0, -161148.7908540715, -114759.57808012702, 5397.812175489924, -183706.21606185628, -182656.98047363525, -167987.5529393617, -187500.02235174447, -183376.10314799586, 0.0, 0.0, 0.0, 193.0, 1.0, 1.0, 1.0, 0.0, 0.0, 0.0, 257.0, 256.0, 0.0, 1.762004368970453E9, 0.0, 2025-11-01 17:09:28.970
152.0, -21548.422759583325, 27266.58013660671, 124506.3915260305, -56847.45989411591, -58895.57259030016, -11888.53524786654, -168091.01916444532, -70652.32195285821, 0.0, 0.0, 0.0, 193.0, 1.0, 1.0, 1.0, 0.0, 0.0, 0.0, 257.0, 256.0, 0.0, 1.762004368970495E9, 0.0, 2025-11-01 17:09:28.970
153.0, 82135.53066677222, 148932.40021853452, 172398.11091400517, 97772.96754991623, 105962.22203519607, 131174.02865577088, -100359.2431973509, 90407.28544083661, 0.0, 0.0, 0.0, 193.0, 1.0, 1.0, 1.0, 0.0, 0.0, 0.0, 257.0, 256.0, 0.0, 1.7620043689705458E9, 0.0, 2025-11-01 17:09:28.970
154.0, 25545.227592614603, 135341.75727865187, 166287.61336655778, 55056.615776612256, 78465.39657895525, 87411.4364280029, -115222.70622524098, 74825.68321534195, 0.0, 0.0, 0.0, 193.0, 1.0, 1.0, 1.0, 0.0, 0.0, 0.0, 257.0, 256.0, 0.0, 1.7620043689706407E9, 0.0, 2025-11-01 17:09:28.970
155.0, -113547.10770214889, -9073.51184767626, 87579.2756771178, -113334.02852225644, -95511.55215639499, -88354.2553608722, -171920.61059720643, -91387.3647317129, 0.0, 0.0, 0.0, 193.0, 1.0, 1.0, 1.0, 0.0, 0.0, 0.0, 257.0, 256.0, 0.0, 1.7620043689706807E9, 0.0, 2025-11-01 17:09:28.970
156.0, -161521.21562018583, -115197.58286447321, 4368.000253200562, -183808.51999622822, -182718.00073599824, -168121.81986830474, -187500.02235174447, -183350.3315866389, 0.0, 0.0, 0.0, 193.0, 1.0, 1.0, 1.0, 0.0, 0.0, 0.0, 257.0, 256.0, 0.0, 1.7620043689707284E9, 0.0, 2025-11-01 17:09:28.970
157.0, -22593.165647168833, 25917.093565117546, 123311.9590058278, -57870.87921749106, -59767.49178975723, -12959.049696809017, -168604.72930726164, -71361.341638725, 0.0, 0.0, 0.0, 193.0, 1.0, 1.0, 1.0, 0.0, 0.0, 0.0, 257.0, 256.0, 0.0, 1.7620043689707675E9, 0.0, 2025-11-01 17:09:28.970
158.0, 81803.29433718853, 148655.86443613344, 172348.6241517811, 97444.12868548975, 105934.72938951605, 130865.35106484308, -101409.93164896152, 90277.7570817181, 0.0, 0.0, 0.0, 193.0, 1.0, 1.0, 1.0, 0.0, 0.0, 0.0, 257.0, 256.0, 0.0, 1.7620043689708152E9, 0.0, 2025-11-01 17:09:28.970
159.0, 26056.948430174405, 135790.8485282479, 166209.2705022419, 55803.387558864066, 79980.7777977917, 88077.11608137084, -115337.01304638541, 75880.35027746562, 0.0, 0.0, 0.0, 193.0, 1.0, 1.0, 1.0, 0.0, 0.0, 0.0, 257.0, 256.0, 0.0, 1.7620043689708521E9, 0.0, 2025-11-01 17:09:28.970
160.0, -112702.16705824937, -7716.090406905461, 87733.14508594813, -112419.037511234, -93849.63290090954, -87236.15404798437, -171690.87936769478, -89954.75202259446, 0.0, 0.0, 0.0, 193.0, 1.0, 1.0, 1.0, 0.0, 0.0, 0.0, 257.0, 256.0, 0.0, 1.7620043689708986E9, 0.0, 2025-11-01 17:09:28.970
161.0, -161926.98918902746, -115045.07691205466, 3380.4331279317294, -183896.47411065985, -182616.03207779315, -168427.9046568757, -187500.02235174447, -183306.85744367333, 0.0, 0.0, 0.0, 193.0, 1.0, 1.0, 1.0, 0.0, 0.0, 0.0, 257.0, 256.0, 0.0, 1.7620043689709349E9, 0.0, 2025-11-01 17:09:28.970
162.0, -23825.976112601296, 24722.214010025742, 122000.06806851245, -59092.29029325132, -60568.198331379695, -14531.092587839674, -168766.2430126957, -72648.37743620604, 0.0, 0.0, 0.0, 193.0, 1.0, 1.0, 1.0, 0.0, 0.0, 0.0, 257.0, 256.0, 0.0, 1.7620043689709702E9, 0.0, 2025-11-01 17:09:28.970
163.0, 81619.65240474373, 148378.3228252319, 172251.81874654518, 97027.93920373192, 105435.61493582904, 130388.85657654484, -101030.60019381049, 89430.06717325059, 0.0, 0.0, 0.0, 193.0, 1.0, 1.0, 1.0, 0.0, 0.0, 0.0, 257.0, 256.0, 0.0, 1.7620043689710023E9, 0.0, 2025-11-01 17:09:28.971
164.0, 26783.58129067198, 136222.14778925752, 166257.25969758746, 56844.53181559227, 80156.39545397705, 88712.21854832394, -114404.47591596555, 76130.24278047595, 0.0, 0.0, 0.0, 193.0, 1.0, 1.0, 1.0, 0.0, 0.0, 0.0, 257.0, 256.0, 0.0, 1.7620043689710405E9, 0.0, 2025-11-01 17:09:28.971
165.0, -112023.92572449753, -6703.534031335596, 88498.17824341993, -111457.7560374446, -93320.70122011915, -86422.48349457783, -171376.23386099742, -89458.1633160309, 0.0, 0.0, 0.0, 193.0, 1.0, 1.0, 1.0, 0.0, 0.0, 0.0, 257.0, 256.0, 0.0, 1.7620043689710717E9, 0.0, 2025-11-01 17:09:28.971
166.0, -162130.32300833738, -115305.07240355879, 3112.368656679232, -184117.26464238937, -182909.59988946916, -168820.17777206635, -187500.02235174447, -183506.79379782605, 0.0, 0.0, 0.0, 193.0, 1.0, 1.0, 1.0, 0.0, 0.0, 0.0, 257.0, 256.0, 0.0, 1.7620043689711037E9, 0.0, 2025-11-01 17:09:28.971
167.0, -24503.859818441848, 23682.008526564663, 121277.61498422803, -60461.06642020541, -62394.53701907838, -15816.027321341911, -168957.5292417442, -74002.3120048418, 0.0, 0.0, 0.0, 193.0, 1.0, 1.0, 1.0, 0.0, 0.0, 0.0, 257.0, 256.0, 0.0, 1.7620043689711354E9, 0.0, 2025-11-01 17:09:28.971
168.0, 82173.86390851307, 148224.05108500138, 172206.400001812, 96982.69927295439, 104982.23215129759, 130280.4506159366, -100487.00576865743, 89346.98573911021, 0.0, 0.0, 0.0, 193.0, 1.0, 1.0, 1.0, 0.0, 0.0, 0.0, 257.0, 256.0, 0.0, 1.762004368971167E9, 0.0, 2025-11-01 17:09:28.971
169.0, 28281.25992789983, 136900.1656055648, 166200.91094981565, 58280.206713701096, 81839.3700527394, 90191.25583067606, -113148.48669153295, 78097.30805126525, 0.0, 0.0, 0.0, 193.0, 1.0, 1.0, 1.0, 0.0, 0.0, 0.0, 257.0, 256.0, 0.0, 1.7620043689712272E9, 0.0, 2025-11-01 17:09:28.971
170.0, -110700.83656321009, -4794.583296130097, 88910.56792862034, -110060.68260201009, -91507.5500616491, -84746.21441915208, -170904.4332390348, -87301.93523191634, 0.0, 0.0, 0.0, 193.0, 1.0, 1.0, 1.0, 0.0, 0.0, 0.0, 257.0, 256.0, 0.0, 1.7620043689712634E9, 0.0, 2025-11-01 17:09:28.971
171.0, -162323.39737694233, -114954.84291968858, 1935.2363866849407, -184074.8857349021, -182763.26301852026, -168790.36054496295, -187500.02235174447, -183193.35528532928, 0.0, 0.0, 0.0, 193.0, 1.0, 1.0, 1.0, 0.0, 0.0, 0.0, 257.0, 256.0, 0.0, 1.762004368971328E9, 0.0, 2025-11-01 17:09:28.971
172.0, -25808.508790553667, 22582.973251697214, 119780.8751202673, -61679.01297557509, -63505.2399045515, -17023.4685568176, -169286.23399570395, -74487.34485952197, 0.0, 0.0, 0.0, 193.0, 1.0, 1.0, 1.0, 0.0, 0.0, 0.0, 257.0, 256.0, 0.0, 1.762004368971589E9, 0.0, 2025-11-01 17:09:28.971
173.0, 81363.32259933026, 147837.65647860247, 172041.5558864541, 95894.41518716994, 104050.81260810049, 129693.06912339559, -101318.80358681722, 88809.3145262378, 0.0, 0.0, 0.0, 193.0, 1.0, 1.0, 1.0, 0.0, 0.0, 0.0, 257.0, 256.0, 0.0, 1.7620043689732456E9, 0.0, 2025-11-01 17:09:28.973
174.0, 28475.02720058289, 136950.0770509335, 166210.14222027568, 58284.878228292255, 81867.98028564219, 90503.7108664168, -113181.83549426026, 78329.1403447557, 0.0, 0.0, 0.0, 193.0, 1.0, 1.0, 1.0, 0.0, 0.0, 0.0, 257.0, 256.0, 0.0, 1.7620043689733067E9, 0.0, 2025-11-01 17:09:28.973
175.0, -110175.1011818768, -4342.295747076958, 89749.16067709455, -109622.65546591944, -90922.5602057648, -84020.31916622152, -170680.6252218038, -86532.61053950913, 0.0, 0.0, 0.0, 193.0, 1.0, 1.0, 1.0, 0.0, 0.0, 0.0, 257.0, 256.0, 0.0, 1.7620043689733984E9, 0.0, 2025-11-01 17:09:28.973
176.0, -162694.92807327845, -115687.3542889779, 2116.3972754952047, -184236.2876816139, -182843.61753983708, -169176.1293025171, -187500.02235174447, -183204.32999185682, 0.0, 0.0, 0.0, 193.0, 1.0, 1.0, 1.0, 0.0, 0.0, 0.0, 257.0, 256.0, 0.0, 1.7620043689734552E9, 0.0, 2025-11-01 17:09:28.973
177.0, -26552.17368032619, 21099.66678615413, 119440.68156965752, -62945.88749955744, -64560.8904434312, -18321.657874781835, -169608.34498504936, -75354.99487578808, 0.0, 0.0, 0.0, 193.0, 1.0, 1.0, 1.0, 0.0, 0.0, 0.0, 257.0, 256.0, 0.0, 1.762004368973606E9, 0.0, 2025-11-01 17:09:28.973
178.0, 81414.10576273272, 147482.80018363002, 172103.71608778433, 95401.0674835524, 103708.16036560063, 129345.49949711555, -101860.45341020268, 88551.68831964592, 0.0, 0.0, 0.0, 193.0, 1.0, 1.0, 1.0, 0.0, 0.0, 0.0, 257.0, 256.0, 0.0, 1.7620043689737625E9, 0.0, 2025-11-01 17:09:28.973
179.0, 29023.494306027213, 137293.0645696002, 166307.77464005645, 58842.062514074154, 82768.30855230195, 91094.66863807067, -113196.7664595564, 78964.08634949761, 0.0, 0.0, 0.0, 193.0, 1.0, 1.0, 1.0, 0.0, 0.0, 0.0, 257.0, 256.0, 0.0, 1.7620043689739473E9, 0.0, 2025-11-01 17:09:28.973
180.0, -109580.38831715446, -3424.48841625314, 90681.56369704768, -108841.35023848418, -89778.70968326446, -83150.59043772107, -170467.3895797002, -85551.27955094332, 0.0, 0.0, 0.0, 193.0, 1.0, 1.0, 1.0, 0.0, 0.0, 0.0, 257.0, 256.0, 0.0, 1.7620043689740937E9, 0.0, 2025-11-01 17:09:28.974
181.0, -163312.52912432305, -116054.12406374504, 2011.5228905109038, -184376.5672298154, -182919.30054656274, -169521.1731816737, -187500.02235174447, -183290.20539405412, 0.0, 0.0, 0.0, 193.0, 1.0, 1.0, 1.0, 0.0, 0.0, 0.0, 257.0, 256.0, 0.0, 1.7620043689742491E9, 0.0, 2025-11-01 17:09:28.974
182.0, -27919.586350868507, 19726.934400431444, 118574.12678886972, -64086.184094689386, -65822.48995572209, -19769.514473618805, -169945.49869841323, -76772.09547425454, 0.0, 0.0, 0.0, 193.0, 1.0, 1.0, 1.0, 0.0, 0.0, 0.0, 257.0, 256.0, 0.0, 1.7620043689743319E9, 0.0, 2025-11-01 17:09:28.974
183.0, 81424.00758552643, 147203.6045436388, 172059.72785469628, 95472.8836384873, 103585.82926819674, 129095.47288363849, -101991.72520538869, 88193.23339381616, 0.0, 0.0, 0.0, 193.0, 1.0, 1.0, 1.0, 0.0, 0.0, 0.0, 257.0, 256.0, 0.0, 1.7620043689744256E9, 0.0, 2025-11-01 17:09:28.974
184.0, 30305.545664494715, 137991.60128731743, 166340.2070212611, 60694.10570789644, 84516.5949483627, 92324.1933970682, -112341.99104809655, 80581.52563351698, 0.0, 0.0, 0.0, 193.0, 1.0, 1.0, 1.0, 0.0, 0.0, 0.0, 257.0, 256.0, 0.0, 1.7620043689748528E9, 0.0, 2025-11-01 17:09:28.974
185.0, -108191.83089635741, -1121.6775920006744, 91597.62759180399, -107050.17084481369, -87847.67542453711, -81392.37986712216, -170044.85220251707, -83448.60624654368, 0.0, 0.0, 0.0, 193.0, 1.0, 1.0, 1.0, 0.0, 0.0, 0.0, 257.0, 256.0, 0.0, 1.762004368974954E9, 0.0, 2025-11-01 17:09:28.974
186.0, -163265.8363301559, -114612.61536033338, 1837.939243070989, -184299.2078422556, -182670.70444473083, -169331.63038869266, -187500.02235174447, -182952.85051499016, 0.0, 0.0, 0.0, 193.0, 1.0, 1.0, 1.0, 0.0, 0.0, 0.0, 257.0, 256.0, 0.0, 1.7620043689750793E9, 0.0, 2025-11-01 17:09:28.975
187.0, -28870.04958034153, 19820.811727143733, 117690.74114450708, -65266.13268448505, -66464.67792566752, -20705.24790349578, -170122.77038368827, -77137.9041240101, 0.0, 0.0, 0.0, 193.0, 1.0, 1.0, 1.0, 0.0, 0.0, 0.0, 257.0, 256.0, 0.0, 1.7620043689751425E9, 0.0, 2025-11-01 17:09:28.975
188.0, 80998.85505424203, 147217.55203217888, 171970.3879321084, 94675.5969137665, 103472.68473776398, 128688.67113455191, -102066.9388254808, 88304.00863933667, 0.0, 0.0, 0.0, 193.0, 1.0, 1.0, 1.0, 0.0, 0.0, 0.0, 257.0, 256.0, 0.0, 1.762004368975182E9, 0.0, 2025-11-01 17:09:28.975
189.0, 30398.327755728693, 138284.81147108215, 166330.75223335653, 60495.80103108896, 85486.79476818976, 92825.09599031163, -112068.67391689705, 81072.97343885583, 0.0, 0.0, 0.0, 193.0, 1.0, 1.0, 1.0, 0.0, 0.0, 0.0, 257.0, 256.0, 0.0, 1.7620043689752228E9, 0.0, 2025-11-01 17:09:28.975
190.0, -107924.10170127175, -576.5855999691009, 91980.28945687885, -106889.95354055805, -86830.15696169817, -80708.3494315564, -169831.59420866898, -82923.9213971998, 0.0, 0.0, 0.0, 193.0, 1.0, 1.0, 1.0, 0.0, 0.0, 0.0, 257.0, 256.0, 0.0, 1.7620043689752614E9, 0.0, 2025-11-01 17:09:28.975
191.0, -163879.2352532429, -115907.02723348467, 967.986997125983, -184545.47936266416, -182808.12296964205, -169868.6534009759, -187500.02235174447, -183160.25235179096, 0.0, 0.0, 0.0, 193.0, 1.0, 1.0, 1.0, 0.0, 0.0, 0.0, 257.0, 256.0, 0.0, 1.7620043689753075E9, 0.0, 2025-11-01 17:09:28.975
192.0, -29991.034268264088, 17565.85598777008, 116563.25209894803, -66564.43376117156, -67788.25882533299, -22278.90012012722, -170403.53064579138, -78748.28025678161, 0.0, 0.0, 0.0, 193.0, 1.0, 1.0, 1.0, 0.0, 0.0, 0.0, 257.0, 256.0, 0.0, 1.7620043689753432E9, 0.0, 2025-11-01 17:09:28.975
193.0, 81048.40887169944, 146624.8955279464, 171918.9789198612, 94492.98316156665, 102962.70733627169, 128317.09573472688, -102125.99213433173, 87325.31515661659, 0.0, 0.0, 0.0, 193.0, 1.0, 1.0, 1.0, 0.0, 0.0, 0.0, 257.0, 256.0, 0.0, 1.762004368975414E9, 0.0, 2025-11-01 17:09:28.975
194.0, 31481.672105988517, 138529.92070077907, 166388.73265847357, 62031.410578657466, 86493.22676577888, 93823.86133955258, -111203.57199949885, 81985.37164752146, 0.0, 0.0, 0.0, 193.0, 1.0, 1.0, 1.0, 0.0, 0.0, 0.0, 257.0, 256.0, 0.0, 1.7620043689754496E9, 0.0, 2025-11-01 17:09:28.975
195.0, -106716.34754137369, 776.6560645885545, 93169.62577934573, -105242.89819513539, -85276.06252146514, -79133.91490386902, -169417.77401182344, -81205.31811777569, 0.0, 0.0, 0.0, 193.0, 1.0, 1.0, 1.0, 0.0, 0.0, 0.0, 257.0, 256.0, 0.0, 1.7620043689754877E9, 0.0, 2025-11-01 17:09:28.975
196.0, -164045.75574943493, -115552.59562165686, 1114.9720686640821, -184451.9373121187, -182662.30018881563, -169791.15990294932, -187500.02235174447, -182918.49588376237, 0.0, 0.0, 0.0, 193.0, 1.0, 1.0, 1.0, 0.0, 0.0, 0.0, 257.0, 256.0, 0.0, 1.762004368975524E9, 0.0, 2025-11-01 17:09:28.975
197.0, -31135.22006693126, 16385.326252618583, 115695.51267570409, -67513.64529295509, -68751.730770079, -23344.206612611608, -170619.8284768854, -79388.12129355923, 0.0, 0.0, 0.0, 193.0, 1.0, 1.0, 1.0, 0.0, 0.0, 0.0, 257.0, 256.0, 0.0, 1.762004368975558E9, 0.0, 2025-11-01 17:09:28.975
198.0, 80859.17900314082, 146266.48530560557, 171862.18313720028, 94284.15081312071, 102850.23335817258, 127996.23644307096, -102139.358477516, 87437.69972773788, 0.0, 0.0, 0.0, 193.0, 1.0, 1.0, 1.0, 0.0, 0.0, 0.0, 257.0, 256.0, 0.0, 1.7620043689757152E9, 0.0, 2025-11-01 17:09:28.975
199.0, 32023.970129963178, 138848.94714938966, 166483.12407530835, 62694.475077924144, 87553.74998494983, 94584.46885162221, -110727.18926992289, 82940.41698460781, 0.0, 0.0, 0.0, 193.0, 1.0, 1.0, 1.0, 0.0, 0.0, 0.0, 257.0, 256.0, 0.0, 1.7620043689758008E9, 0.0, 2025-11-01 17:09:28.975
200.0, -106053.95359444065, 1532.770876022682, 94313.47630184607, -104551.89401529956, -84229.39738385647, -78201.60129089371, -169136.29849389775, -80115.78233430175, 0.0, 0.0, 0.0, 193.0, 1.0, 1.0, 1.0, 0.0, 0.0, 0.0, 257.0, 256.0, 0.0, 1.7620043689758554E9, 0.0, 2025-11-01 17:09:28.975
201.0, -164369.92309927024, -116282.76005777837, 1537.5988528250282, -184607.01371514963, -182751.90833233696, -170103.90551136798, -187500.02235174447, -182866.1704499925, 0.0, 0.0, 0.0, 193.0, 1.0, 1.0, 1.0, 0.0, 0.0, 0.0, 257.0, 256.0, 0.0, 1.762004368975911E9, 0.0, 2025-11-01 17:09:28.975
202.0, -32307.144380467464, 14733.331171671292, 115468.01662063798, -69174.8269408735, -70403.122353926, -24776.774618241147, -171100.54744488568, -80382.32688693129, 0.0, 0.0, 0.0, 193.0, 1.0, 1.0, 1.0, 0.0, 0.0, 0.0, 257.0, 256.0, 0.0, 1.7620043689759505E9, 0.0, 2025-11-01 17:09:28.975
203.0, 80388.89829980115, 145815.98589610888, 171994.41605739787, 93158.56166584036, 101413.932611219, 127549.76034757619, -103454.8703974331, 86883.3094100129, 0.0, 0.0, 0.0, 193.0, 1.0, 1.0, 1.0, 0.0, 0.0, 0.0, 257.0, 256.0, 0.0, 1.762004368976004E9, 0.0, 2025-11-01 17:09:28.976
204.0, 32669.197937154528, 139067.815431096, 166721.97481655775, 63168.957909221404, 87101.57419461897, 95224.55575758884, -111211.5962757583, 83802.05438161545, 0.0, 0.0, 0.0, 193.0, 1.0, 1.0, 1.0, 0.0, 0.0, 0.0, 257.0, 256.0, 0.0, 1.7620043689760437E9, 0.0, 2025-11-01 17:09:28.976
205.0, -105146.22690036618, 2329.923490276753, 95706.72758897873, -103562.4940469854, -83891.3496007144, -77028.51468664584, -168995.32604161813, -78733.41634671883, 0.0, 0.0, 0.0, 193.0, 1.0, 1.0, 1.0, 0.0, 0.0, 0.0, 257.0, 256.0, 0.0, 1.7620043689760954E9, 0.0, 2025-11-01 17:09:28.976
206.0, -164675.82907388557, -116593.82928536288, 2198.8752125352876, -184716.2466903027, -182908.43759875747, -170281.35601059868, -187500.02235174447, -182865.7681185923, 0.0, 0.0, 0.0, 193.0, 1.0, 1.0, 1.0, 0.0, 0.0, 0.0, 257.0, 256.0, 0.0, 1.7620043689761348E9, 0.0, 2025-11-01 17:09:28.976
207.0, -33310.491837321744, 13402.195382379936, 115164.32346872371, -70529.56617230966, -71865.23936572544, -26254.29198197031, -171434.0131204144, -81884.18530037228, 0.0, 0.0, 0.0, 193.0, 1.0, 1.0, 1.0, 0.0, 0.0, 0.0, 257.0, 256.0, 0.0, 1.7620043689761872E9, 0.0, 2025-11-01 17:09:28.976
208.0, 80286.7508276404, 145448.83614168598, 172071.55192751312, 92562.44064121731, 100547.95897578704, 126968.99497139394, -103722.3313715853, 85708.05468655284, 0.0, 0.0, 0.0, 193.0, 1.0, 1.0, 1.0, 0.0, 0.0, 0.0, 257.0, 256.0, 0.0, 1.7620043689762273E9, 0.0, 2025-11-01 17:09:28.976
209.0, 33240.799098110096, 139376.91770516845, 166824.7704893077, 63777.52885550605, 87763.5658101518, 95622.93089901577, -110825.84986994862, 83563.18128862159, 0.0, 0.0, 0.0, 193.0, 1.0, 1.0, 1.0, 0.0, 0.0, 0.0, 257.0, 256.0, 0.0, 1.7620043689762816E9, 0.0, 2025-11-01 17:09:28.976
210.0, -104564.41099219453, 3305.6665427287276, 96610.67683824025, -102866.17015196921, -82832.7039280777, -76428.41505150974, -168762.42086439382, -78585.4477984247, 0.0, 0.0, 0.0, 193.0, 1.0, 1.0, 1.0, 0.0, 0.0, 0.0, 257.0, 256.0, 0.0, 1.7620043689763243E9, 0.0, 2025-11-01 17:09:28.976
211.0, -165062.00016283992, -116740.76965341208, 1982.5326779523705, -184870.36196832205, -182976.945695513, -170743.21010627868, -187500.02235174447, -183102.49544411845, 0.0, 0.0, 0.0, 193.0, 1.0, 1.0, 1.0, 0.0, 0.0, 0.0, 257.0, 256.0, 0.0, 1.762004368976399E9, 0.0, 2025-11-01 17:09:28.976
212.0, -34538.36256722958, 12087.555180496596, 114056.25808909633, -71734.83928857319, -73056.25206902648, -27872.75944623464, -171836.5009828211, -83527.23968353745, 0.0, 0.0, 0.0, 193.0, 1.0, 1.0, 1.0, 0.0, 0.0, 0.0, 257.0, 256.0, 0.0, 1.7620043689764392E9, 0.0, 2025-11-01 17:09:28.976
213.0, 79769.68792315578, 145219.9319267192, 172057.64914246192, 91904.42763619754, 99749.82288477695, 126466.28188684964, -104354.90809141495, 84328.46031528238, 0.0, 0.0, 0.0, 193.0, 1.0, 1.0, 1.0, 0.0, 0.0, 0.0, 257.0, 256.0, 0.0, 1.7620043689764886E9, 0.0, 2025-11-01 17:09:28.976
214.0, 33839.0882419453, 139978.91723858324, 166860.35446648055, 64460.28524163786, 87965.69263526113, 96364.60648353178, -110659.99992609024, 83730.0594127249, 0.0, 0.0, 0.0, 193.0, 1.0, 1.0, 1.0, 0.0, 0.0, 0.0, 257.0, 256.0, 0.0, 1.762004368976558E9, 0.0, 2025-11-01 17:09:28.976
215.0, -103517.72350284141, 5036.987964747902, 97054.11309648909, -101847.0423635295, -81912.92964374181, -75090.03729701487, -168529.71685286963, -77483.68561073371, 0.0, 0.0, 0.0, 193.0, 1.0, 1.0, 1.0, 0.0, 0.0, 0.0, 257.0, 256.0, 0.0, 1.7620043689766104E9, 0.0, 2025-11-01 17:09:28.976
216.0, -165100.5122185364, -116058.10267425809, 1304.648972111818, -184911.33271590862, -182987.3839601736, -170578.20952870962, -187500.02235174447, -183013.82607386424, 0.0, 0.0, 0.0, 193.0, 1.0, 1.0, 1.0, 0.0, 0.0, 0.0, 257.0, 256.0, 0.0, 1.762004368976668E9, 0.0, 2025-11-01 17:09:28.976
217.0, -35329.92724536982, 11400.574314662734, 112820.72071084032, -72975.0258296759, -74395.56859678848, -28547.625666573724, -172103.8725499955, -84440.46490674793, 0.0, 0.0, 0.0, 193.0, 1.0, 1.0, 1.0, 0.0, 0.0, 0.0, 257.0, 256.0, 0.0, 1.7620043689767096E9, 0.0, 2025-11-01 17:09:28.976
218.0, 79914.81779990409, 145046.236520557, 171925.21505656422, 91455.0905174125, 99434.59623272375, 126435.21296205676, -104645.32430712275, 84304.72276267085, 0.0, 0.0, 0.0, 193.0, 1.0, 1.0, 1.0, 0.0, 0.0, 0.0, 257.0, 256.0, 0.0, 1.7620043689767604E9, 0.0, 2025-11-01 17:09:28.976
219.0, 34953.3003512979, 140498.9082215915, 166759.59280247605, 65494.992195962936, 89842.0098235619, 97692.50126987712, -110098.45705013956, 85391.77750251026, 0.0, 0.0, 0.0, 193.0, 1.0, 1.0, 1.0, 0.0, 0.0, 0.0, 257.0, 256.0, 0.0, 1.7620043689767995E9, 0.0, 2025-11-01 17:09:28.976
220.0, -102489.69972010849, 6405.473519024077, 97003.50874704227, -100536.3807721592, -79967.74673077426, -73569.9175083539, -168165.0928455702, -75497.91192983532, 0.0, 0.0, 0.0, 193.0, 1.0, 1.0, 1.0, 0.0, 0.0, 0.0, 257.0, 256.0, 0.0, 1.7620043689768505E9, 0.0, 2025-11-01 17:09:28.976
221.0, -165505.68229027776, -116708.78430709653, -597.7303502238215, -184923.8496928036, -182849.92073177348, -170780.87279568586, -187500.02235174447, -182795.0471991357, 0.0, 0.0, 0.0, 193.0, 1.0, 1.0, 1.0, 0.0, 0.0, 0.0, 257.0, 256.0, 0.0, 1.7620043689768903E9, 0.0, 2025-11-01 17:09:28.976
222.0, -36798.99564969488, 9207.868183597111, 110862.70789655542, -74270.84586272787, -75550.59499151648, -30242.89372478649, -172408.86210308818, -85413.413991143, 0.0, 0.0, 0.0, 193.0, 1.0, 1.0, 1.0, 0.0, 0.0, 0.0, 257.0, 256.0, 0.0, 1.7620043689769404E9, 0.0, 2025-11-01 17:09:28.976
223.0, 79493.24154773254, 144261.35501400888, 171711.24180689358, 90977.09846223575, 98578.92675148568, 125723.62282557761, -104699.63904614915, 83754.82514558139, 0.0, 0.0, 0.0, 193.0, 1.0, 1.0, 1.0, 0.0, 0.0, 0.0, 257.0, 256.0, 0.0, 1.762004368976982E9, 0.0, 2025-11-01 17:09:28.976
224.0, 35745.82615444972, 140497.32124773518, 166645.6436092429, 66605.00217735794, 90062.17450644667, 98344.12167598268, -109112.94628536061, 86488.75641688782, 0.0, 0.0, 0.0, 193.0, 1.0, 1.0, 1.0, 0.0, 0.0, 0.0, 257.0, 256.0, 0.0, 1.7620043689770331E9, 0.0, 2025-11-01 17:09:28.977
225.0, -101478.46209746148, 6973.520752611251, 97368.5350857419, -99316.78018769983, -79167.0848926407, -72316.7669554671, -167753.68663712582, -73894.93422447852, 0.0, 0.0, 0.0, 193.0, 1.0, 1.0, 1.0, 0.0, 0.0, 0.0, 257.0, 256.0, 0.0, 1.762004368977079E9, 0.0, 2025-11-01 17:09:28.977
226.0, -165551.4363111778, -116867.36993400693, -998.9441631965832, -184784.0171794912, -182717.2854801757, -170808.94658672175, -187500.02235174447, -182488.29185823107, 0.0, 0.0, 0.0, 193.0, 1.0, 1.0, 1.0, 0.0, 0.0, 0.0, 257.0, 256.0, 0.0, 1.7620043689771354E9, 0.0, 2025-11-01 17:09:28.977
227.0, -37527.774277660166, 8340.866367920205, 109837.79100630176, -74951.30001918078, -76281.49703520501, -31428.02791929578, -172531.0143865364, -85892.03189516449, 0.0, 0.0, 0.0, 193.0, 1.0, 1.0, 1.0, 0.0, 0.0, 0.0, 257.0, 256.0, 0.0, 1.7620043689771743E9, 0.0, 2025-11-01 17:09:28.977
228.0, 79322.58597881628, 144081.06584323238, 171533.992473363, 90729.23996797085, 98390.18862130507, 125326.61114056244, -104948.86099682582, 83817.85706494535, 0.0, 0.0, 0.0, 193.0, 1.0, 1.0, 1.0, 0.0, 0.0, 0.0, 257.0, 256.0, 0.0, 1.7620043689772258E9, 0.0, 2025-11-01 17:09:28.977
229.0, 36131.84078119288, 140894.02000832796, 166499.68671794972, 67341.33569494911, 91012.95066034206, 98889.28072324762, -108921.28007665636, 87374.5784013961, 0.0, 0.0, 0.0, 193.0, 1.0, 1.0, 1.0, 0.0, 0.0, 0.0, 257.0, 256.0, 0.0, 1.7620043689773085E9, 0.0, 2025-11-01 17:09:28.977
230.0, -100773.37631861882, 8420.684447370106, 97471.88955210324, -98188.66529329603, -77669.16038622384, -71276.40500979483, -167423.12668837627, -72503.04639375763, 0.0, 0.0, 0.0, 193.0, 1.0, 1.0, 1.0, 0.0, 0.0, 0.0, 257.0, 256.0, 0.0, 1.7620043689774742E9, 0.0, 2025-11-01 17:09:28.977
231.0, -165661.5410043646, -116433.41081540714, -2036.9591757010433, -184712.26807978965, -182539.90203617836, -170780.1128363744, -187500.02235174447, -182277.82783243989, 0.0, 0.0, 0.0, 193.0, 1.0, 1.0, 1.0, 0.0, 0.0, 0.0, 257.0, 256.0, 0.0, 1.7620043689775293E9, 0.0, 2025-11-01 17:09:28.977
232.0, -38180.311105288405, 7558.555311984457, 108397.5340005796, -75721.9211127664, -77033.45442217046, -32085.079799303985, -172613.0452886874, -86487.32590524267, 0.0, 0.0, 0.0, 193.0, 1.0, 1.0, 1.0, 0.0, 0.0, 0.0, 257.0, 256.0, 0.0, 1.7620043689775684E9, 0.0, 2025-11-01 17:09:28.977
233.0, 79508.57484442889, 143855.69320388953, 171303.34482232868, 90869.8994958281, 98649.89354013128, 125328.89101849688, -104641.12217916515, 84006.05875325904, 0.0, 0.0, 0.0, 193.0, 1.0, 1.0, 1.0, 0.0, 0.0, 0.0, 257.0, 256.0, 0.0, 1.7620043689776204E9, 0.0, 2025-11-01 17:09:28.977
234.0, 36977.56373614833, 141363.9654355008, 166414.21364715262, 68407.98329210082, 92759.65008254649, 100076.7171474358, -108215.9931321136, 88555.77868888124, 0.0, 0.0, 0.0, 193.0, 1.0, 1.0, 1.0, 0.0, 0.0, 0.0, 257.0, 256.0, 0.0, 1.7620043689776611E9, 0.0, 2025-11-01 17:09:28.977
235.0, -99852.819723227, 10047.287946616167, 98265.75645992237, -97052.39201216603, -75903.8196091437, -69733.66525574509, -166989.3687354766, -70949.3989884137, 0.0, 0.0, 0.0, 193.0, 1.0, 1.0, 1.0, 0.0, 0.0, 0.0, 257.0, 256.0, 0.0, 1.762004368977712E9, 0.0, 2025-11-01 17:09:28.977
236.0, -165905.3091293942, -116035.54976410267, -1924.3734388796615, -184671.18557348082, -182368.26299050607, -170804.6550517863, -187500.02235174447, -182048.78950700635, 0.0, 0.0, 0.0, 193.0, 1.0, 1.0, 1.0, 0.0, 0.0, 0.0, 257.0, 256.0, 0.0, 1.7620043689777546E9, 0.0, 2025-11-01 17:09:28.977
237.0, -39212.76053342349, 6833.621184065483, 107839.03096187484, -77109.11507715167, -78289.53305358089, -33456.96281873737, -172933.4128419653, -87443.84645746309, 0.0, 0.0, 0.0, 193.0, 1.0, 1.0, 1.0, 0.0, 0.0, 0.0, 257.0, 256.0, 0.0, 1.7620043689778037E9, 0.0, 2025-11-01 17:09:28.977
238.0, 79411.97060489305, 143675.7169575354, 171272.45471149145, 90213.18289198673, 98147.918063154, 124836.97382652448, -105513.5554687447, 83680.84087143432, 0.0, 0.0, 0.0, 193.0, 1.0, 1.0, 1.0, 0.0, 0.0, 0.0, 257.0, 256.0, 0.0, 1.762004368977844E9, 0.0, 2025-11-01 17:09:28.977
239.0, 37650.239485530794, 141675.1911252965, 166447.96478128014, 69071.0030878786, 94006.5421469858, 100612.24259284051, -108166.64048035628, 89522.73750576228, 0.0, 0.0, 0.0, 193.0, 1.0, 1.0, 1.0, 0.0, 0.0, 0.0, 257.0, 256.0, 0.0, 1.7620043689778943E9, 0.0, 2025-11-01 17:09:28.977
240.0, -98983.87330578249, 11241.27343192976, 99221.58410806466, -96079.57703823771, -74360.78928241602, -68675.7124871865, -166709.0108047737, -69518.41795664048, 0.0, 0.0, 0.0, 193.0, 1.0, 1.0, 1.0, 0.0, 0.0, 0.0, 257.0, 256.0, 0.0, 1.7620043689779327E9, 0.0, 2025-11-01 17:09:28.977
241.0, -166147.8255567343, -116237.56483048975, -1816.3251061827073, -184659.80853555305, -182161.86698220577, -171035.45916503182, -187500.02235174447, -181843.64519639555, 0.0, 0.0, 0.0, 193.0, 1.0, 1.0, 1.0, 0.0, 0.0, 0.0, 257.0, 256.0, 0.0, 1.762004368977985E9, 0.0, 2025-11-01 17:09:28.977
242.0, -40468.079205522445, 5158.380288884675, 107148.3397064614, -78586.58773739192, -79155.9313721575, -35277.57945985549, -173135.13733567446, -88633.74157354135, 0.0, 0.0, 0.0, 193.0, 1.0, 1.0, 1.0, 0.0, 0.0, 0.0, 257.0, 256.0, 0.0, 1.7620043689780245E9, 0.0, 2025-11-01 17:09:28.978
243.0, 78870.72311290778, 143067.39188043974, 171288.63737447708, 88935.71364113256, 97413.48444384152, 124024.4208603407, -105673.5939590447, 82490.02933383339, 0.0, 0.0, 0.0, 193.0, 1.0, 1.0, 1.0, 0.0, 0.0, 0.0, 257.0, 256.0, 0.0, 1.7620043694517007E9, 0.0, 2025-11-01 17:09:29.451
244.0, 37990.61185009621, 141770.4766119095, 166608.62912042488, 69101.42381208227, 93865.2567702838, 100995.79852769358, -107837.98042988544, 89294.05680824004, 0.0, 0.0, 0.0, 193.0, 1.0, 1.0, 1.0, 0.0, 0.0, 0.0, 257.0, 256.0, 0.0, 1.7620043694518516E9, 0.0, 2025-11-01 17:09:29.451
245.0, -98224.45043616896, 11936.189167045257, 100828.76394137907, -95375.25121870651, -73764.914126982, -67748.18214752461, -166418.54988557697, -69019.61642737585, 0.0, 0.0, 0.0, 193.0, 1.0, 1.0, 1.0, 0.0, 0.0, 0.0, 257.0, 256.0, 0.0, 1.7620043694519303E9, 0.0, 2025-11-01 17:09:29.451
246.0, -166439.7393393206, -116351.46932023398, -745.5200845623118, -184658.02039599663, -182189.91842149716, -170986.3076789746, -187500.02235174447, -181860.87839137058, 0.0, 0.0, 0.0, 193.0, 1.0, 1.0, 1.0, 0.0, 0.0, 0.0, 257.0, 256.0, 0.0, 1.762004369451991E9, 0.0, 2025-11-01 17:09:29.451
247.0, -41857.01660597522, 3967.54639953928, 106854.10134245174, -79663.76300618208, -80771.69427534274, -36173.6385433243, -173422.40195541407, -89997.64502020419, 0.0, 0.0, 0.0, 193.0, 1.0, 1.0, 1.0, 0.0, 0.0, 0.0, 257.0, 256.0, 0.0, 1.7620043694520333E9, 0.0, 2025-11-01 17:09:29.452
248.0, 78484.37320999781, 142729.1429315976, 171287.58684248768, 88868.83722172228, 96584.3464832719, 123779.55749983282, -106138.66670592627, 81839.43710797276, 0.0, 0.0, 0.0, 193.0, 1.0, 1.0, 1.0, 0.0, 0.0, 0.0, 257.0, 256.0, 0.0, 1.7620043694520853E9, 0.0, 2025-11-01 17:09:29.452
249.0, 38538.83308635153, 142155.37365142987, 166703.33346168202, 70291.83301828301, 94596.91877328382, 101663.46748631806, -107535.00253379375, 89828.03998327733, 0.0, 0.0, 0.0, 193.0, 1.0, 1.0, 1.0, 0.0, 0.0, 0.0, 257.0, 256.0, 0.0, 1.7620043694521284E9, 0.0, 2025-11-01 17:09:29.452
250.0, -97603.36251298935, 13321.192660473904, 102032.11480761944, -94354.40234594373, -72777.10113252416, -66862.00253510506, -166124.9597221565, -68332.881430731, 0.0, 0.0, 0.0, 193.0, 1.0, 1.0, 1.0, 0.0, 0.0, 0.0, 257.0, 256.0, 0.0, 1.762004369452179E9, 0.0, 2025-11-01 17:09:29.452
251.0, -166758.34110478655, -116311.52675289236, -451.99697637521945, -184719.0630101041, -182224.54127365843, -171239.88821982007, -187500.02235174447, -181867.40510075155, 0.0, 0.0, 0.0, 193.0, 1.0, 1.0, 1.0, 0.0, 0.0, 0.0, 257.0, 256.0, 0.0, 1.7620043694522195E9, 0.0, 2025-11-01 17:09:29.452
252.0, -43236.141590612126, 2191.253267676028, 105978.89643655973, -81316.07101155174, -82605.0961142893, -37943.47202103997, -173847.10745180937, -91442.37237481742, 0.0, 0.0, 0.0, 193.0, 1.0, 1.0, 1.0, 0.0, 0.0, 0.0, 257.0, 256.0, 0.0, 1.7620043694522696E9, 0.0, 2025-11-01 17:09:29.452
253.0, 78134.07667089422, 142113.06179917595, 171304.7306304849, 87719.19759740801, 95172.18562033006, 123084.35119203941, -107144.56226164846, 80723.45921080819, 0.0, 0.0, 0.0, 193.0, 1.0, 1.0, 1.0, 0.0, 0.0, 0.0, 257.0, 256.0, 0.0, 1.7620043694523084E9, 0.0, 2025-11-01 17:09:29.452
254.0, 39575.73051163322, 142254.838914256, 166859.97448682482, 70761.46552103347, 94911.00548636979, 102443.58807129718, -107507.80046079165, 90538.78075346717, 0.0, 0.0, 0.0, 193.0, 1.0, 1.0, 1.0, 0.0, 0.0, 0.0, 257.0, 256.0, 0.0, 1.7620043694523575E9, 0.0, 2025-11-01 17:09:29.452
255.0, -96415.07672251186, 13877.214655544121, 103457.30673757872, -93366.00820613006, -71754.75469288287, -65553.218490269, -165884.3655448396, -66842.10948253983, 0.0, 0.0, 0.0, 193.0, 1.0, 1.0, 1.0, 0.0, 0.0, 0.0, 257.0, 256.0, 0.0, 1.7620043694523945E9, 0.0, 2025-11-01 17:09:29.452
0.0, -166788.98534643475, -116173.86235879212, 1047.0898207533146, -184657.6851198298, -182066.04505372586, -171245.1185280226, -187500.02235174447, -181632.89059792645, 0.0, 0.0, 0.0, 193.0, 1.0, 1.0, 1.0, 0.0, 0.0, 0.0, 257.0, 256.0, 0.0, 1.7620043694524484E9, 0.0, 2025-11-01 17:09:29.452
1.0, -44227.91084383856, 1284.7559195465947, 106228.99010527016, -82285.55557555624, -83164.00148439426, -39331.135372058794, -174075.63168712042, -92364.38183359883, 0.0, 0.0, 0.0, 193.0, 1.0, 1.0, 1.0, 0.0, 0.0, 0.0, 257.0, 256.0, 0.0, 1.762004369452488E9, 0.0, 2025-11-01 17:09:29.452
2.0, 77596.31605104399, 141783.77589986037, 171450.3298938668, 87079.40126411931, 94782.28179005168, 122413.66474791346, -107351.3382496045, 79887.32515422406, 0.0, 0.0, 0.0, 193.0, 1.0, 1.0, 1.0, 0.0, 0.0, 0.0, 257.0, 256.0, 0.0, 1.7620043694525635E9, 0.0, 2025-11-01 17:09:29.452
3.0, 39938.18639972048, 142641.59114856616, 167051.30541936224, 71344.6895891058, 95109.42192189956, 102716.32405714084, -107065.28062406548, 90803.47011130693, 0.0, 0.0, 0.0, 193.0, 1.0, 1.0, 1.0, 0.0, 0.0, 0.0, 257.0, 256.0, 0.0, 1.7620043694526908E9, 0.0, 2025-11-01 17:09:29.452
4.0, -95881.58528585259, 15018.315913476457, 104825.83699534381, -92645.41031663542, -71202.51014262559, -64900.70401438523, -165643.95018147829, -66097.1034881, 0.0, 0.0, 0.0, 193.0, 1.0, 1.0, 1.0, 0.0, 0.0, 0.0, 257.0, 256.0, 0.0, 1.7620043694527414E9, 0.0, 2025-11-01 17:09:29.452
5.0, -167060.96137296694, -116654.89425121478, 1566.6784723613825, -184774.4059293754, -182215.1535409872, -171584.32860187633, -187500.02235174447, -181741.96711086837, 0.0, 0.0, 0.0, 193.0, 1.0, 1.0, 1.0, 0.0, 0.0, 0.0, 257.0, 256.0, 0.0, 1.7620043694527812E9, 0.0, 2025-11-01 17:09:29.452
6.0, -44881.76642438966, 13.746322840013844, 105984.59613139584, -83516.89082585464, -84863.11404265334, -40712.62964160796, -174442.8261450322, -94091.25525847141, 0.0, 0.0, 0.0, 193.0, 1.0, 1.0, 1.0, 0.0, 0.0, 0.0, 257.0, 256.0, 0.0, 1.7620043694528344E9, 0.0, 2025-11-01 17:09:29.452
7.0, 77750.83366046354, 141559.02910936228, 171598.11962820526, 86548.59203679467, 93745.0267368587, 122068.82203445699, -107888.87535201017, 78570.047446495, 0.0, 0.0, 0.0, 193.0, 1.0, 1.0, 1.0, 0.0, 0.0, 0.0, 257.0, 256.0, 0.0, 1.7620043694528863E9, 0.0, 2025-11-01 17:09:29.452
8.0, 40610.01278281365, 143093.18579354117, 167257.99200034048, 71917.25187507295, 95858.49593383026, 103510.682703338, -106960.27212861445, 90604.80780658816, 0.0, 0.0, 0.0, 193.0, 1.0, 1.0, 1.0, 0.0, 0.0, 0.0, 257.0, 256.0, 0.0, 1.762004369452929E9, 0.0, 2025-11-01 17:09:29.452
9.0, -95109.55603236628, 16494.35806207157, 106214.23795392967, -91642.64400513697, -69843.4346727651, -63617.847993117335, -165421.95265554817, -65562.04742932886, 0.0, 0.0, 0.0, 193.0, 1.0, 1.0, 1.0, 0.0, 0.0, 0.0, 257.0, 256.0, 0.0, 1.7620043694533315E9, 0.0, 2025-11-01 17:09:29.453
10.0, -167306.31647185286, -116320.51215416339, 2301.290905629505, -184810.34753445955, -182146.06429887586, -171609.07198298836, -187500.02235174447, -181798.87465225157, 0.0, 0.0, 0.0, 193.0, 1.0, 1.0, 1.0, 0.0, 0.0, 0.0, 257.0, 256.0, 0.0, 1.7620043694533737E9, 0.0, 2025-11-01 17:09:29.453
11.0, -46014.99986827372, -1141.2800718879787, 105506.8052419192, -84758.64198906923, -86169.10411943246, -42004.73928508035, -174866.25759199355, -95458.26559761353, 0.0, 0.0, 0.0, 193.0, 1.0, 1.0, 1.0, 0.0, 0.0, 0.0, 257.0, 256.0, 0.0, 1.7620043694534228E9, 0.0, 2025-11-01 17:09:29.453
12.0, 77306.52568418095, 141250.06094575656, 171701.58585328888, 85818.8075803289, 92789.26614394978, 121566.31011561277, -108977.0253273279, 77344.4118910327, 0.0, 0.0, 0.0, 193.0, 1.0, 1.0, 1.0, 0.0, 0.0, 0.0, 257.0, 256.0, 0.0, 1.7620043694534602E9, 0.0, 2025-11-01 17:09:29.453
13.0, 41122.158303518096, 143497.10416759303, 167451.6251625568, 72657.31813398817, 96280.29570344636, 104267.7139362948, -107351.27119437113, 90646.6949756974, 0.0, 0.0, 0.0, 193.0, 1.0, 1.0, 1.0, 0.0, 0.0, 0.0, 257.0, 256.0, 0.0, 1.7620043694535213E9, 0.0, 2025-11-01 17:09:29.453
14.0, -94001.7365219279, 17964.186425708107, 107425.12135805147, -90258.556933231, -68607.51731485335, -62170.729001847394, -165274.02881074295, -64406.05990958928, 0.0, 0.0, 0.0, 193.0, 1.0, 1.0, 1.0, 0.0, 0.0, 0.0, 257.0, 256.0, 0.0, 1.7620043694535615E9, 0.0, 2025-11-01 17:09:29.453
15.0, -167421.49501103105, -115563.03388631748, 3066.167600890112, -184737.36908881296, -182036.94308244504, -171487.65730710715, -187500.02235174447, -181636.4221735504, 0.0, 0.0, 0.0, 193.0, 1.0, 1.0, 1.0, 0.0, 0.0, 0.0, 257.0, 256.0, 0.0, 1.762004369453591E9, 0.0, 2025-11-01 17:09:29.453
16.0, -47249.911397684984, -1742.2290733133643, 105277.83397171902, -85774.08173967383, -87259.62337966244, -43036.24993994831, -175228.6687765919, -96427.75016161802, 0.0, 0.0, 0.0, 193.0, 1.0, 1.0, 1.0, 0.0, 0.0, 0.0, 257.0, 256.0, 0.0, 1.762004369453622E9, 0.0, 2025-11-01 17:09:29.453
17.0, 76792.81554136462, 141066.1507923783, 171808.2036743407, 85374.52195579075, 91985.02802670337, 121215.87946604246, -109836.51695686781, 76834.52389651822, 0.0, 0.0, 0.0, 193.0, 1.0, 1.0, 1.0, 0.0, 0.0, 0.0, 257.0, 256.0, 0.0, 1.7620043694536707E9, 0.0, 2025-11-01 17:09:29.453
18.0, 41575.94341944974, 143815.66122957008, 167638.28458050307, 73292.73352536363, 96058.61110193863, 105077.24941697711, -107467.120285883, 91273.77316639104, 0.0, 0.0, 0.0, 193.0, 1.0, 1.0, 1.0, 0.0, 0.0, 0.0, 257.0, 256.0, 0.0, 1.7620043694538128E9, 0.0, 2025-11-01 17:09:29.453
19.0, -93496.38593153786, 18760.310859717236, 108834.86823259214, -89679.4679378829, -68579.8905587066, -61255.98386001395, -165089.06812537528, -63684.72441252761, 0.0, 0.0, 0.0, 193.0, 1.0, 1.0, 1.0, 0.0, 0.0, 0.0, 257.0, 256.0, 0.0, 1.7620043694538653E9, 0.0, 2025-11-01 17:09:29.453
20.0, -167975.12536944455, -116170.68841107946, 3744.8336177866004, -184903.21903267136, -182315.42346661372, -171905.00907957664, -187500.02235174447, -181782.75904449928, 0.0, 0.0, 0.0, 193.0, 1.0, 1.0, 1.0, 0.0, 0.0, 0.0, 257.0, 256.0, 0.0, 1.7620043694539056E9, 0.0, 2025-11-01 17:09:29.453
21.0, -48846.60826284984, -3634.7512763442132, 104676.21441795999, -87541.52358073278, -89514.19913938036, -45098.13131071703, -175552.74671944938, -98675.50863927706, 0.0, 0.0, 0.0, 193.0, 1.0, 1.0, 1.0, 0.0, 0.0, 0.0, 257.0, 256.0, 0.0, 1.7620043694539564E9, 0.0, 2025-11-01 17:09:29.453
22.0, 76535.52461093958, 140491.86742208808, 171906.39488773287, 84552.98358833595, 90278.09235788493, 120429.7239100604, -109521.80439493709, 74829.661825855, 0.0, 0.0, 0.0, 193.0, 1.0, 1.0, 1.0, 0.0, 0.0, 0.0, 257.0, 256.0, 0.0, 1.7620043694540143E9, 0.0, 2025-11-01 17:09:29.454
23.0, 42596.36760906787, 144152.23379757808, 167812.00233840971, 74382.38106755985, 96187.20068779, 105574.75454506333, -106113.58804864742, 91070.41699533665, 0.0, 0.0, 0.0, 193.0, 1.0, 1.0, 1.0, 0.0, 0.0, 0.0, 257.0, 256.0, 0.0, 1.762004369454056E9, 0.0, 2025-11-01 17:09:29.454
24.0, -92349.27205434705, 19985.61113901271, 109959.25038567191, -88351.77431723766, -67571.22338667195, -60148.67843969804, -164728.04274893316, -63118.06298709667, 0.0, 0.0, 0.0, 193.0, 1.0, 1.0, 1.0, 0.0, 0.0, 0.0, 257.0, 256.0, 0.0, 1.7620043694541073E9, 0.0, 2025-11-01 17:09:29.454
25.0, -167916.630854205, -116406.81223950532, 3976.8670769771434, -184816.78483686267, -182211.9572415301, -171824.09576464843, -187500.02235174447, -181792.79497775974, 0.0, 0.0, 0.0, 193.0, 1.0, 1.0, 1.0, 0.0, 0.0, 0.0, 257.0, 256.0, 0.0, 1.7620043694541483E9, 0.0, 2025-11-01 17:09:29.454
26.0, -49563.80868718728, -5332.947413080623, 103950.49797898508, -88300.92409860184, -90467.83631656604, -45891.37236969142, -175887.62055487878, -100110.1777088854, 0.0, 0.0, 0.0, 193.0, 1.0, 1.0, 1.0, 0.0, 0.0, 0.0, 257.0, 256.0, 0.0, 1.7620043694542027E9, 0.0, 2025-11-01 17:09:29.454
27.0, 76199.7343539875, 139932.85029326085, 171936.346225303, 84191.10884560453, 89666.34746388764, 120118.74408945371, -110227.02428424648, 73406.28038719659, 0.0, 0.0, 0.0, 193.0, 1.0, 1.0, 1.0, 0.0, 0.0, 0.0, 257.0, 256.0, 0.0, 1.7620043694542403E9, 0.0, 2025-11-01 17:09:29.454
28.0, 43174.16020323756, 144401.67926569932, 167893.31798473813, 75412.90824567179, 97322.24462297495, 106437.19660487135, -106137.79498789251, 91186.95899092662, 0.0, 0.0, 0.0, 193.0, 1.0, 1.0, 1.0, 0.0, 0.0, 0.0, 257.0, 256.0, 0.0, 1.76200436945429E9, 0.0, 2025-11-01 17:09:29.454
29.0, -91320.33185009145, 21110.0826990703, 110623.90185879492, -86796.89756594868, -65727.18211736466, -58635.8900232184, -164510.2920544496, -61737.66395302582, 0.0, 0.0, 0.0, 193.0, 1.0, 1.0, 1.0, 0.0, 0.0, 0.0, 257.0, 256.0, 0.0, 1.7620043694543295E9, 0.0, 2025-11-01 17:09:29.454
30.0, -168012.49748617382, -115923.27695170366, 3883.235619453862, -184713.36331526798, -181935.0861829622, -171766.16004302027, -187500.02235174447, -181510.96183192276, 0.0, 0.0, 0.0, 193.0, 1.0, 1.0, 1.0, 0.0, 0.0, 0.0, 257.0, 256.0, 0.0, 1.7620043694543788E9, 0.0, 2025-11-01 17:09:29.454
31.0, -50630.702153528, -6145.902710664596, 102898.84840236288, -89352.52897173513, -90928.48341804546, -47280.62269456658, -176175.3322095075, -100477.72979470847, 0.0, 0.0, 0.0, 193.0, 1.0, 1.0, 1.0, 0.0, 0.0, 0.0, 257.0, 256.0, 0.0, 1.7620043694544177E9, 0.0, 2025-11-01 17:09:29.454
32.0, 76044.97087537896, 139766.75448021348, 171853.0636254625, 83643.04407156039, 89981.26119151845, 119575.73080965648, -110600.90191375041, 73754.45351057692, 0.0, 0.0, 0.0, 193.0, 1.0, 1.0, 1.0, 0.0, 0.0, 0.0, 257.0, 256.0, 0.0, 1.7620043694544687E9, 0.0, 2025-11-01 17:09:29.454
33.0, 43594.39535074179, 144732.6191941046, 167826.0168821832, 75553.97010492922, 98273.93719839302, 106647.03478181777, -106215.48965161917, 92024.70237311153, 0.0, 0.0, 0.0, 193.0, 1.0, 1.0, 1.0, 0.0, 0.0, 0.0, 257.0, 256.0, 0.0, 1.7620043694545987E9, 0.0, 2025-11-01 17:09:29.454
34.0, -90847.23482695041, 22194.119953408237, 110499.35793868995, -86407.91015719296, -64786.55365545198, -58134.60745031923, -164393.32537571495, -60837.693314277334, 0.0, 0.0, 0.0, 193.0, 1.0, 1.0, 1.0, 0.0, 0.0, 0.0, 257.0, 256.0, 0.0, 1.7620043694546773E9, 0.0, 2025-11-01 17:09:29.454
35.0, -168238.71949180597, -115737.08692039097, 2693.1393376754927, -184757.7538797562, -181883.431301526, -171904.58439643198, -187500.02235174447, -181403.49464458163, 0.0, 0.0, 0.0, 193.0, 1.0, 1.0, 1.0, 0.0, 0.0, 0.0, 257.0, 256.0, 0.0, 1.7620043694547164E9, 0.0, 2025-11-01 17:09:29.454
36.0, -51841.764371605444, -7271.6706719005915, 101263.28185359023, -90562.98769271228, -92383.5596303415, -48622.040286307376, -176545.94648432094, -101571.26654043992, 0.0, 0.0, 0.0, 193.0, 1.0, 1.0, 1.0, 0.0, 0.0, 0.0, 257.0, 256.0, 0.0, 1.7620043694547648E9, 0.0, 2025-11-01 17:09:29.454
37.0, 75504.41628747182, 139301.97230600982, 171697.18255963118, 82812.60970981237, 88600.39277081404, 118945.50102299465, -111504.42647986728, 72757.18572821448, 0.0, 0.0, 0.0, 193.0, 1.0, 1.0, 1.0, 0.0, 0.0, 0.0, 257.0, 256.0, 0.0, 1.7620043694548187E9, 0.0, 2025-11-01 17:09:29.454
38.0, 44195.50081437836, 145036.08882857428, 167812.98581516574, 76225.28239789992, 98478.5450671369, 107457.0620008781, -106186.96882569419, 92440.17659904678, 0.0, 0.0, 0.0, 193.0, 1.0, 1.0, 1.0, 0.0, 0.0, 0.0, 257.0, 256.0, 0.0, 1.76200436945486E9, 0.0, 2025-11-01 17:09:29.454
39.0, -89832.46562867948, 23359.18228139666, 111007.59190411471, -85253.71077700982, -63755.71355291767, -56750.00628829078, -164106.86541877573, -59637.71756144972, 0.0, 0.0, 0.0, 193.0, 1.0, 1.0, 1.0, 0.0, 0.0, 0.0, 257.0, 256.0, 0.0, 1.7620043694549117E9, 0.0, 2025-11-01 17:09:29.454
40.0, -168270.0119340434, -115488.60257728132, 2588.3096561801026, -184671.14086999188, -181780.30035260922, -171743.80829856495, -187500.02235174447, -181249.71464272914, 0.0, 0.0, 0.0, 193.0, 1.0, 1.0, 1.0, 0.0, 0.0, 0.0, 257.0, 256.0, 0.0, 1.7620043694549596E9, 0.0, 2025-11-01 17:09:29.454
41.0, -52488.288579975204, -8113.07974017617, 100446.66086991559, -91466.02052045114, -93430.73885807263, -49305.42252128393, -176694.47382622646, -102564.7121745005, 0.0, 0.0, 0.0, 193.0, 1.0, 1.0, 1.0, 0.0, 0.0, 0.0, 257.0, 256.0, 0.0, 1.7620043694608536E9, 0.0, 2025-11-01 17:09:29.460
42.0, 75825.87907622804, 139168.8006125451, 171624.38292794026, 82857.02262604507, 88423.83634136157, 119005.62721557943, -111344.94678317868, 72561.71972295281, 0.0, 0.0, 0.0, 193.0, 1.0, 1.0, 1.0, 0.0, 0.0, 0.0, 257.0, 256.0, 0.0, 1.7620043694609425E9, 0.0, 2025-11-01 17:09:29.460
43.0, 45171.98147439736, 145472.841915231, 167806.2579400847, 77473.49321526209, 99566.15860058769, 108637.77054998525, -105328.17010023238, 93466.50164920112, 0.0, 0.0, 0.0, 193.0, 1.0, 1.0, 1.0, 0.0, 0.0, 0.0, 257.0, 256.0, 0.0, 1.762004369461011E9, 0.0, 2025-11-01 17:09:29.461
44.0, -88748.09309817471, 25157.089550148197, 111740.90793620443, -83830.01641392904, -62266.52857858284, -54929.92608903958, -163733.5465828832, -58098.867010935195, 0.0, 0.0, 0.0, 193.0, 1.0, 1.0, 1.0, 0.0, 0.0, 0.0, 257.0, 256.0, 0.0, 1.762004369461053E9, 0.0, 2025-11-01 17:09:29.461
45.0, -168238.54067785034, -114643.63958163734, 2296.7758532495327, -184500.21708014217, -181519.29903260458, -171536.7864414199, -187500.02235174447, -180885.8952982301, 0.0, 0.0, 0.0, 193.0, 1.0, 1.0, 1.0, 0.0, 0.0, 0.0, 257.0, 256.0, 0.0, 1.762004369461104E9, 0.0, 2025-11-01 17:09:29.461
46.0, -53638.643460112035, -9053.104704988564, 99243.33235541968, -92646.03616548017, -94593.85658429345, -50705.75931140892, -177022.038641219, -103238.32669715009, 0.0, 0.0, 0.0, 193.0, 1.0, 1.0, 1.0, 0.0, 0.0, 0.0, 257.0, 256.0, 0.0, 1.7620043694611442E9, 0.0, 2025-11-01 17:09:29.461
47.0, 75014.62251122267, 138689.57921142332, 171526.75050815946, 81626.73790773605, 87188.85775671694, 118142.58165867112, -112229.15944208617, 71881.48908394446, 0.0, 0.0, 0.0, 193.0, 1.0, 1.0, 1.0, 0.0, 0.0, 0.0, 257.0, 256.0, 0.0, 1.762004369461193E9, 0.0, 2025-11-01 17:09:29.461
48.0, 45604.040694718446, 145602.92906796088, 167832.67770203087, 77659.19150819677, 99809.6138011949, 109008.20601084305, -105431.99395322728, 94008.6432109646, 0.0, 0.0, 0.0, 193.0, 1.0, 1.0, 1.0, 0.0, 0.0, 0.0, 257.0, 256.0, 0.0, 1.7620043694613783E9, 0.0, 2025-11-01 17:09:29.461
49.0, -87889.16026224617, 25810.475744065734, 112342.37102775229, -82986.68509563031, -61194.784783695315, -53973.29377809689, -163496.61809165694, -56867.464705403414, 0.0, 0.0, 0.0, 193.0, 1.0, 1.0, 1.0, 0.0, 0.0, 0.0, 257.0, 256.0, 0.0, 1.7620043694614315E9, 0.0, 2025-11-01 17:09:29.461
50.0, -168468.00368642854, -114813.75870868668, 2440.8775497528973, -184473.66320772926, -181370.34700755443, -171631.02139604348, -187500.02235174447, -180697.6936099164, 0.0, 0.0, 0.0, 193.0, 1.0, 1.0, 1.0, 0.0, 0.0, 0.0, 257.0, 256.0, 0.0, 1.7620043694614837E9, 0.0, 2025-11-01 17:09:29.461
51.0, -54898.94657122452, -10410.01205563689, 98475.05819500187, -93925.18179716848, -95481.95844673616, -52337.99545025772, -177203.579509685, -104284.50009638073, 0.0, 0.0, 0.0, 193.0, 1.0, 1.0, 1.0, 0.0, 0.0, 0.0, 257.0, 256.0, 0.0, 1.7620043694769833E9, 0.0, 2025-11-01 17:09:29.476
52.0, 74453.41491143881, 138245.7853252632, 171493.2228914765, 80867.09152067799, 86657.28857008083, 117359.08596027923, -112101.68744345754, 71236.28362849756, 0.0, 0.0, 0.0, 193.0, 1.0, 1.0, 1.0, 0.0, 0.0, 0.0, 257.0, 256.0, 0.0, 1.7620043694782238E9, 0.0, 2025-11-01 17:09:29.478
53.0, 45780.127737537354, 145901.1460424836, 167870.29568794917, 78034.99138772386, 99950.4968464967, 108992.91741763562, -104840.96912634006, 94469.82675431094, 0.0, 0.0, 0.0, 193.0, 1.0, 1.0, 1.0, 0.0, 0.0, 0.0, 257.0, 256.0, 0.0, 1.7620043694782991E9, 0.0, 2025-11-01 17:09:29.478
54.0, -87418.14195133948, 27029.11520351353, 112998.8194106602, -82309.44959037895, -60670.43521051827, -53629.72511407437, -163221.4234139232, -56007.68250318558, 0.0, 0.0, 0.0, 193.0, 1.0, 1.0, 1.0, 0.0, 0.0, 0.0, 257.0, 256.0, 0.0, 1.76200436947896E9, 0.0, 2025-11-01 17:09:29.478
55.0, -168470.93176495217, -114441.69157048364, 2215.9072418102314, -184459.44749825567, -181329.6444809013, -171802.39222078232, -187500.02235174447, -180595.34497205555, 0.0, 0.0, 0.0, 193.0, 1.0, 1.0, 1.0, 0.0, 0.0, 0.0, 257.0, 256.0, 0.0, 1.762004369479015E9, 0.0, 2025-11-01 17:09:29.479
56.0, -55547.70595403981, -11341.655116278544, 97224.92512761655, -94932.5078645358, -96634.88377748535, -53614.77179703377, -177447.36998645903, -105627.10233057766, 0.0, 0.0, 0.0, 193.0, 1.0, 1.0, 1.0, 0.0, 0.0, 0.0, 257.0, 256.0, 0.0, 1.762004369479051E9, 0.0, 2025-11-01 17:09:29.479
57.0, 74733.92930435292, 137953.1115833654, 171298.4721420374, 80621.08822120288, 86333.9258830459, 117004.09555484004, -112192.77080211292, 70289.8884165154, 0.0, 0.0, 0.0, 193.0, 1.0, 1.0, 1.0, 0.0, 0.0, 0.0, 257.0, 256.0, 0.0, 1.762004369479084E9, 0.0, 2025-11-01 17:09:29.479
58.0, 47034.88761602493, 146321.3364864989, 167731.71487232627, 79226.80875382529, 101546.14317967214, 110122.21695449555, -103836.4146752852, 95120.93307029404, 0.0, 0.0, 0.0, 193.0, 1.0, 1.0, 1.0, 0.0, 0.0, 0.0, 257.0, 256.0, 0.0, 1.7620043694791157E9, 0.0, 2025-11-01 17:09:29.479
59.0, -86067.80601356101, 28804.89424525431, 112931.13832844954, -80758.88672576984, -58463.2004455567, -51756.00072813043, -162751.92502163947, -54425.93895506131, 0.0, 0.0, 0.0, 193.0, 1.0, 1.0, 1.0, 0.0, 0.0, 0.0, 257.0, 256.0, 0.0, 1.76200436947915E9, 0.0, 2025-11-01 17:09:29.479
60.0, -168402.75894436348, -113466.19438722068, 1220.8969856377823, -184251.73273703252, -180910.191644453, -171395.92574786255, -187500.02235174447, -180197.66273470674, 0.0, 0.0, 0.0, 193.0, 1.0, 1.0, 1.0, 0.0, 0.0, 0.0, 257.0, 256.0, 0.0, 1.7620043694791844E9, 0.0, 2025-11-01 17:09:29.479
61.0, -56565.894969212415, -11861.869616731361, 95697.45161502977, -95943.45491450488, -97385.94709467258, -54276.18226721076, -177639.17030563002, -105883.76741215795, 0.0, 0.0, 0.0, 193.0, 1.0, 1.0, 1.0, 0.0, 0.0, 0.0, 257.0, 256.0, 0.0, 1.76200436947922E9, 0.0, 2025-11-01 17:09:29.479
62.0, 74406.47624808268, 137843.29746285648, 171157.72320720236, 80020.5415511777, 86027.52817005255, 116786.50132256762, -112348.0707225884, 70603.52809471227, 0.0, 0.0, 0.0, 193.0, 1.0, 1.0, 1.0, 0.0, 0.0, 0.0, 257.0, 256.0, 0.0, 1.76200436947926E9, 0.0, 2025-11-01 17:09:29.479
63.0, 47663.373966619256, 146718.3258197696, 167804.87213192848, 79897.24932876222, 102648.68767841908, 111000.46169763348, -103352.58881480561, 96634.86142574089, 0.0, 0.0, 0.0, 193.0, 1.0, 1.0, 1.0, 0.0, 0.0, 0.0, 257.0, 256.0, 0.0, 1.7620043694793315E9, 0.0, 2025-11-01 17:09:29.479
64.0, -85126.99873769269, 30111.800743556112, 114115.89254330308, -79669.23918357363, -57069.85975144622, -50438.655965168, -162404.28834012608, -52600.18141271847, 0.0, 0.0, 0.0, 193.0, 1.0, 1.0, 1.0, 0.0, 0.0, 0.0, 257.0, 256.0, 0.0, 1.7620043694793687E9, 0.0, 2025-11-01 17:09:29.479
65.0, -168685.7096774232, -113770.20046355731, 1809.8878037795787, -184140.3539944117, -180712.892796146, -171472.59223134426, -187500.02235174447, -179877.42929189556, 0.0, 0.0, 0.0, 193.0, 1.0, 1.0, 1.0, 0.0, 0.0, 0.0, 257.0, 256.0, 0.0, 1.7620043694794075E9, 0.0, 2025-11-01 17:09:29.479
66.0, -57966.61173899314, -13751.776665660938, 95204.88622246817, -97128.11972238061, -98569.44961183664, -55926.36685685717, -177898.9422796896, -106827.50276654992, 0.0, 0.0, 0.0, 193.0, 1.0, 1.0, 1.0, 0.0, 0.0, 0.0, 257.0, 256.0, 0.0, 1.7620043694794636E9, 0.0, 2025-11-01 17:09:29.479
67.0, 73721.7976119277, 137041.16040958886, 171215.39070789705, 79109.66326113502, 85020.80559978553, 115939.01257980021, -112950.09260774763, 69902.06329847137, 0.0, 0.0, 0.0, 193.0, 1.0, 1.0, 1.0, 0.0, 0.0, 0.0, 257.0, 256.0, 0.0, 1.7620043694794996E9, 0.0, 2025-11-01 17:09:29.479
68.0, 47952.382022426376, 146629.2094146263, 167942.02243590623, 80387.221918967, 103041.94427036576, 111274.53878814445, -103124.71278008376, 97240.48194175745, 0.0, 0.0, 0.0, 193.0, 1.0, 1.0, 1.0, 0.0, 0.0, 0.0, 257.0, 256.0, 0.0, 1.7620043694798057E9, 0.0, 2025-11-01 17:09:29.479
69.0, -84395.02381027029, 30246.112375988054, 115284.21822598198, -78701.96744227022, -55911.86057470567, -49542.01573634335, -162128.6689792477, -51261.15545763439, 0.0, 0.0, 0.0, 193.0, 1.0, 1.0, 1.0, 0.0, 0.0, 0.0, 257.0, 256.0, 0.0, 1.7620043694969273E9, 0.0, 2025-11-01 17:09:29.496
70.0, -168840.8531356875, -114470.48061734208, 2639.4057440049346, -184096.6116305127, -180552.63078840147, -171480.84002504827, -187500.02235174447, -179641.01489079176, 0.0, 0.0, 0.0, 193.0, 1.0, 1.0, 1.0, 0.0, 0.0, 0.0, 257.0, 256.0, 0.0, 1.762004369496987E9, 0.0, 2025-11-01 17:09:29.496
71.0, -59201.322102704304, -15929.44007270814, 94723.11672247849, -98393.29551378435, -99717.85989020586, -57327.79888246046, -178171.79002425552, -108007.36194936777, 0.0, 0.0, 0.0, 193.0, 1.0, 1.0, 1.0, 0.0, 0.0, 0.0, 257.0, 256.0, 0.0, 1.7620043694970434E9, 0.0, 2025-11-01 17:09:29.497
72.0, 73619.11369790003, 136208.49087339532, 171227.97474002538, 78544.67821653822, 84342.74307998933, 115369.55718631235, -112939.43082564246, 69189.51203698064, 0.0, 0.0, 0.0, 193.0, 1.0, 1.0, 1.0, 0.0, 0.0, 0.0, 257.0, 256.0, 0.0, 1.7620043694970865E9, 0.0, 2025-11-01 17:09:29.497
73.0, 49105.19559445329, 146845.77546665378, 167980.13216020254, 81427.2709402169, 103658.7630103544, 112164.38408665468, -102170.94149243135, 98199.37177889011, 0.0, 0.0, 0.0, 193.0, 1.0, 1.0, 1.0, 0.0, 0.0, 0.0, 257.0, 256.0, 0.0, 1.7620043694971364E9, 0.0, 2025-11-01 17:09:29.497
74.0, -83264.98666584333, 31294.185673497403, 115807.20434274727, -77464.10548259085, -54761.75156375785, -48095.85787008499, -161740.5309367813, -49746.020107986944, 0.0, 0.0, 0.0, 193.0, 1.0, 1.0, 1.0, 0.0, 0.0, 0.0, 257.0, 256.0, 0.0, 1.762004369497176E9, 0.0, 2025-11-01 17:09:29.497
75.0, -168738.95153271576, -114014.79560313173, 2505.719960417743, -183937.73543092437, -180359.2211436297, -171226.03013825777, -187500.02235174447, -179331.15265740786, 0.0, 0.0, 0.0, 193.0, 1.0, 1.0, 1.0, 0.0, 0.0, 0.0, 257.0, 256.0, 0.0, 1.7620043694972274E9, 0.0, 2025-11-01 17:09:29.497
76.0, -59891.56632322864, -16351.95509814681, 93704.83830032806, -99141.76602861477, -100689.9149048227, -58130.941764228555, -178438.20046641835, -108786.90138899106, 0.0, 0.0, 0.0, 193.0, 1.0, 1.0, 1.0, 0.0, 0.0, 0.0, 257.0, 256.0, 0.0, 1.7620043694972663E9, 0.0, 2025-11-01 17:09:29.497
77.0, 73040.11410952975, 136152.94678842387, 171106.51536065523, 77882.06075216064, 83468.34283689772, 115032.47052818186, -114116.51839214783, 68113.76727983562, 0.0, 0.0, 0.0, 193.0, 1.0, 1.0, 1.0, 0.0, 0.0, 0.0, 257.0, 256.0, 0.0, 1.7620043694973164E9, 0.0, 2025-11-01 17:09:29.497
78.0, 48766.14198281074, 147203.11280526075, 167957.10986341356, 81204.46875148639, 103437.86071990262, 112454.5991366624, -103414.03376031325, 97129.1255508811, 0.0, 0.0, 0.0, 193.0, 1.0, 1.0, 1.0, 0.0, 0.0, 0.0, 257.0, 256.0, 0.0, 1.7620043694974089E9, 0.0, 2025-11-01 17:09:29.497
79.0, -82990.77546486563, 32828.811744309874, 116266.48798781491, -77061.70702716196, -54316.39305548585, -47261.40019433501, -161769.5882045732, -50071.86383865641, 0.0, 0.0, 0.0, 193.0, 1.0, 1.0, 1.0, 0.0, 0.0, 0.0, 257.0, 256.0, 0.0, 1.7620043694974763E9, 0.0, 2025-11-01 17:09:29.497
80.0, -168863.83072898755, -113191.37968914268, 2161.1231161502737, -183865.18166842245, -180234.00667119108, -171098.42402916242, -187500.02235174447, -179334.95245396526, 0.0, 0.0, 0.0, 193.0, 1.0, 1.0, 1.0, 0.0, 0.0, 0.0, 257.0, 256.0, 0.0, 1.7620043694975164E9, 0.0, 2025-11-01 17:09:29.497
81.0, -61154.171664020025, -17619.72369190737, 92130.00144124049, -100526.56835634331, -101937.92455648477, -59504.7470336851, -178668.69165524145, -110294.54890424597, 0.0, 0.0, 0.0, 193.0, 1.0, 1.0, 1.0, 0.0, 0.0, 0.0, 257.0, 256.0, 0.0, 1.7620043694975665E9, 0.0, 2025-11-01 17:09:29.497
82.0, 72682.37443952257, 135505.483806787, 170842.60831387143, 76960.45362477942, 82588.19819548109, 114260.06129503982, -114589.83893273342, 66694.38680343471, 0.0, 0.0, 0.0, 193.0, 1.0, 1.0, 1.0, 0.0, 0.0, 0.0, 257.0, 256.0, 0.0, 1.762004369497605E9, 0.0, 2025-11-01 17:09:29.497
83.0, 49749.12700046623, 147382.35144404788, 167836.32103637708, 82187.38671390852, 104353.99166989228, 113094.44017344, -102835.90588997674, 97578.3285591994, 0.0, 0.0, 0.0, 193.0, 1.0, 1.0, 1.0, 0.0, 0.0, 0.0, 257.0, 256.0, 0.0, 1.762004369497655E9, 0.0, 2025-11-01 17:09:29.497
84.0, -81748.66667373976, 33833.56736106484, 116418.63631232218, -75444.5583158205, -52618.55454666073, -45861.01870072111, -161320.2287340437, -48501.54203194881, 0.0, 0.0, 0.0, 193.0, 1.0, 1.0, 1.0, 0.0, 0.0, 0.0, 257.0, 256.0, 0.0, 1.7620043694977086E9, 0.0, 2025-11-01 17:09:29.497
85.0, -168890.02697348918, -113478.3313844599, 1191.526793423509, -183643.80999133707, -179919.62938542716, -171087.85165403507, -187500.02235174447, -179002.58201391483, 0.0, 0.0, 0.0, 193.0, 1.0, 1.0, 1.0, 0.0, 0.0, 0.0, 257.0, 256.0, 0.0, 1.762004369497749E9, 0.0, 2025-11-01 17:09:29.497
86.0, -62241.829900959725, -19224.33307460941, 90501.63215418246, -101508.12286235367, -102869.2323409596, -61074.75591597032, -178867.68923612707, -111399.01565301606, 0.0, 0.0, 0.0, 193.0, 1.0, 1.0, 1.0, 0.0, 0.0, 0.0, 257.0, 256.0, 0.0, 1.7620043694977996E9, 0.0, 2025-11-01 17:09:29.497
87.0, 72225.88476251182, 134948.16541053838, 170634.1335933368, 76352.77674827298, 81896.45640807824, 113521.91728614776, -114723.4800128317, 66007.11536492292, 0.0, 0.0, 0.0, 193.0, 1.0, 1.0, 1.0, 0.0, 0.0, 0.0, 257.0, 256.0, 0.0, 1.762004369497838E9, 0.0, 2025-11-01 17:09:29.497
88.0, 50415.65602012349, 147600.81739435403, 167818.1714198794, 82988.36147646446, 104825.16644301015, 113662.86738668292, -102118.28078249465, 98535.22909107555, 0.0, 0.0, 0.0, 193.0, 1.0, 1.0, 1.0, 0.0, 0.0, 0.0, 257.0, 256.0, 0.0, 1.7620043694980927E9, 0.0, 2025-11-01 17:09:29.498
89.0, -80732.08698416794, 35034.43718367066, 117475.76206633593, -74212.12783004378, -51562.36756591411, -44730.40041093832, -160886.8284090553, -47043.09070624003, 0.0, 0.0, 0.0, 193.0, 1.0, 1.0, 1.0, 0.0, 0.0, 0.0, 257.0, 256.0, 0.0, 1.7620043694981408E9, 0.0, 2025-11-01 17:09:29.498
90.0, -168818.68020518785, -112935.92160176297, 2303.7495975195884, -183410.07779956792, -179688.8699756706, -170861.00379955815, -187500.02235174447, -178640.75197467234, 0.0, 0.0, 0.0, 193.0, 1.0, 1.0, 1.0, 0.0, 0.0, 0.0, 257.0, 256.0, 0.0, 1.7620043694981964E9, 0.0, 2025-11-01 17:09:29.498
91.0, -63195.78000256777, -20104.902399170685, 90420.60708053198, -102401.16446032102, -104208.21359255476, -61986.61768276903, -179034.25443580802, -112192.07789803481, 0.0, 0.0, 0.0, 193.0, 1.0, 1.0, 1.0, 0.0, 0.0, 0.0, 257.0, 256.0, 0.0, 1.7620043694982388E9, 0.0, 2025-11-01 17:09:29.498
92.0, 71992.28668120941, 134500.12469293174, 170691.6446318203, 75876.41637044148, 80764.1617374613, 113068.44509463849, -114860.18328192036, 65358.42303734101, 0.0, 0.0, 0.0, 193.0, 1.0, 1.0, 1.0, 0.0, 0.0, 0.0, 257.0, 256.0, 0.0, 1.762004369498295E9, 0.0, 2025-11-01 17:09:29.498
93.0, 51001.20466961917, 147781.9335796754, 167922.71052869686, 83521.18236079006, 105133.75462696012, 114316.76767072293, -101634.72314294853, 98727.96818351367, 0.0, 0.0, 0.0, 193.0, 1.0, 1.0, 1.0, 0.0, 0.0, 0.0, 257.0, 256.0, 0.0, 1.7620043694984105E9, 0.0, 2025-11-01 17:09:29.498
94.0, -79987.41626589492, 35864.558620996315, 118418.60335094969, -73421.4795734262, -50612.03844690781, -43539.052431470445, -160586.26450136479, -46319.54238647728, 0.0, 0.0, 0.0, 193.0, 1.0, 1.0, 1.0, 0.0, 0.0, 0.0, 257.0, 256.0, 0.0, 1.7620043694984703E9, 0.0, 2025-11-01 17:09:29.498
95.0, -168827.06210935858, -112754.3583815525, 3012.0540275638136, -183352.49970585105, -179528.49620920376, -170793.38977258085, -187500.02235174447, -178524.20997908237, 0.0, 0.0, 0.0, 193.0, 1.0, 1.0, 1.0, 0.0, 0.0, 0.0, 257.0, 256.0, 0.0, 1.7620043694985113E9, 0.0, 2025-11-01 17:09:29.498
96.0, -64042.82171044609, -20847.203832531435, 90178.91766773674, -103847.05410564592, -105421.22041239982, -63315.76416680386, -179334.3713086094, -113480.16422750524, 0.0, 0.0, 0.0, 193.0, 1.0, 1.0, 1.0, 0.0, 0.0, 0.0, 257.0, 256.0, 0.0, 1.7620043694985628E9, 0.0, 2025-11-01 17:09:29.498
97.0, 71518.56380922363, 134187.8261194022, 170758.47634774167, 74508.7354789657, 79538.9285133992, 112329.87640260177, -115843.52592748714, 63769.03519261303, 0.0, 0.0, 0.0, 193.0, 1.0, 1.0, 1.0, 0.0, 0.0, 0.0, 257.0, 256.0, 0.0, 1.762004369498603E9, 0.0, 2025-11-01 17:09:29.498
98.0, 51386.861668451034, 147979.63475938258, 168058.67619021848, 83506.36315421619, 105060.75382956909, 114639.81743333548, -102079.3440436535, 98166.2241418629, 0.0, 0.0, 0.0, 193.0, 1.0, 1.0, 1.0, 0.0, 0.0, 0.0, 257.0, 256.0, 0.0, 1.7620043694986565E9, 0.0, 2025-11-01 17:09:29.498
99.0, -79106.57872040018, 36867.9507813395, 119596.27206281091, -72621.01890099274, -49762.8956750507, -42498.5787270759, -160418.06762433858, -45764.481516418644, 0.0, 0.0, 0.0, 193.0, 1.0, 1.0, 1.0, 0.0, 0.0, 0.0, 257.0, 256.0, 0.0, 1.762004369498711E9, 0.0, 2025-11-01 17:09:29.498
100.0, -169010.68169005893, -112924.00812196829, 3641.8814828254563, -183263.7632803635, -179352.31975940702, -170751.56965870498, -187500.02235174447, -178371.83813713051, 0.0, 0.0, 0.0, 193.0, 1.0, 1.0, 1.0, 0.0, 0.0, 0.0, 257.0, 256.0, 0.0, 1.7620043694987516E9, 0.0, 2025-11-01 17:09:29.498
101.0, -65461.59868974671, -22805.060184605147, 89442.114763512, -105094.14733578531, -106537.60064096459, -64947.307401574544, -179554.7371571943, -114712.03591967058, 0.0, 0.0, 0.0, 193.0, 1.0, 1.0, 1.0, 0.0, 0.0, 0.0, 257.0, 256.0, 0.0, 1.762004369498803E9, 0.0, 2025-11-01 17:09:29.498
102.0, 71165.4509503187, 133428.11267711077, 170729.28496948304, 73921.17517246904, 79032.63914974203, 111659.61464162049, -115634.26889589654, 63040.03304720319, 0.0, 0.0, 0.0, 193.0, 1.0, 1.0, 1.0, 0.0, 0.0, 0.0, 257.0, 256.0, 0.0, 1.7620043694988437E9, 0.0, 2025-11-01 17:09:29.498
103.0, 52186.316512384, 148273.26962629196, 168164.57875544773, 84666.41869144663, 106326.75663551768, 115355.11795939422, -100760.45701032365, 99168.05168009421, 0.0, 0.0, 0.0, 193.0, 1.0, 1.0, 1.0, 0.0, 0.0, 0.0, 257.0, 256.0, 0.0, 1.7620043694988947E9, 0.0, 2025-11-01 17:09:29.498
104.0, -77960.76124438777, 38394.88785205935, 121162.23527934973, -71052.8205100084, -47899.34133283393, -41068.111785425164, -159875.90371083067, -43996.50323349276, 0.0, 0.0, 0.0, 193.0, 1.0, 1.0, 1.0, 0.0, 0.0, 0.0, 257.0, 256.0, 0.0, 1.7620043694989357E9, 0.0, 2025-11-01 17:09:29.498
105.0, -168750.84266076598, -111858.54516727272, 5540.282194648051, -182973.0788437222, -178918.8300274408, -170520.497324526, -187500.02235174447, -177925.2502829135, 0.0, 0.0, 0.0, 193.0, 1.0, 1.0, 1.0, 0.0, 0.0, 0.0, 257.0, 256.0, 0.0, 1.7620043694989893E9, 0.0, 2025-11-01 17:09:29.498
106.0, -66211.09738482206, -23239.60044856077, 89682.06074023971, -105717.1575089881, -107273.93415855577, -66214.2266290458, -179762.0272352728, -115681.02874529705, 0.0, 0.0, 0.0, 193.0, 1.0, 1.0, 1.0, 0.0, 0.0, 0.0, 257.0, 256.0, 0.0, 1.76200436949903E9, 0.0, 2025-11-01 17:09:29.499
107.0, 70873.0230776099, 133294.58335573477, 170853.38185469888, 73625.17102064741, 78686.38827638487, 111048.67441042357, -116028.95599948836, 62252.55873829827, 0.0, 0.0, 0.0, 193.0, 1.0, 1.0, 1.0, 0.0, 0.0, 0.0, 257.0, 256.0, 0.0, 1.7620043699497895E9, 0.0, 2025-11-01 17:09:29.949
108.0, 52519.69278093491, 148585.90347598834, 168277.94680332506, 85328.07503081263, 106929.87375615523, 115622.31071261296, -100621.29504934492, 99345.39042060262, 0.0, 0.0, 0.0, 193.0, 1.0, 1.0, 1.0, 0.0, 0.0, 0.0, 257.0, 256.0, 0.0, 1.7620043699498973E9, 0.0, 2025-11-01 17:09:29.949
109.0, -77350.08923412433, 39645.89263747843, 121907.10716332283, -69967.71037193661, -46853.682023725756, -40405.11434139185, -159657.52716750233, -43218.57311947025, 0.0, 0.0, 0.0, 193.0, 1.0, 1.0, 1.0, 0.0, 0.0, 0.0, 257.0, 256.0, 0.0, 1.7620043699499588E9, 0.0, 2025-11-01 17:09:29.949
110.0, -168813.0475655851, -111619.56031555658, 5623.16246308833, -182870.3725779501, -178757.58454294023, -170442.26621893243, -187500.02235174447, -177756.58401925376, 0.0, 0.0, 0.0, 193.0, 1.0, 1.0, 1.0, 0.0, 0.0, 0.0, 257.0, 256.0, 0.0, 1.7620043699500058E9, 0.0, 2025-11-01 17:09:29.950
111.0, -67287.37858383401, -24709.138239519387, 88527.81665656765, -107119.0365694805, -108487.81269643459, -67244.68675192437, -180084.42879729616, -116500.08606911733, 0.0, 0.0, 0.0, 193.0, 1.0, 1.0, 1.0, 0.0, 0.0, 0.0, 257.0, 256.0, 0.0, 1.7620043699500678E9, 0.0, 2025-11-01 17:09:29.950
112.0, 70510.7460034783, 132668.53334528607, 170743.7018446567, 72516.45744043082, 77769.07268393907, 110503.24714222517, -116970.0091445457, 61661.220986988665, 0.0, 0.0, 0.0, 193.0, 1.0, 1.0, 1.0, 0.0, 0.0, 0.0, 257.0, 256.0, 0.0, 1.7620043699501133E9, 0.0, 2025-11-01 17:09:29.950
113.0, 53008.570135661386, 148757.87779782747, 168317.66585322213, 85282.4327686349, 107528.25230696825, 116109.89166616103, -101244.1487603365, 99667.05437505894, 0.0, 0.0, 0.0, 193.0, 1.0, 1.0, 1.0, 0.0, 0.0, 0.0, 257.0, 256.0, 0.0, 1.762004369950174E9, 0.0, 2025-11-01 17:09:29.950
114.0, -76746.74859604223, 40493.33667675694, 122362.25573566626, -69638.55858308775, -45713.452483827175, -39364.97591316413, -159636.4271207365, -42496.4776630971, 0.0, 0.0, 0.0, 193.0, 1.0, 1.0, 1.0, 0.0, 0.0, 0.0, 257.0, 256.0, 0.0, 1.7620043699502306E9, 0.0, 2025-11-01 17:09:29.950
122.0, 69242.86565099546, 131440.14852525576, 170796.78723773806, 70897.02885115492, 75589.59878559099, 109055.27878466592, -118222.5562003322, 58291.62845511776, 0.0, 0.0, 0.0, 193.0, 1.0, 1.0, 1.0, 0.0, 0.0, 0.0, 257.0, 256.0, 0.0, 1.7620043699503984E9, 0.0, 2025-11-01 17:09:29.950
123.0, 54064.9135786192, 149173.57554120728, 168600.41542058176, 86694.32541064327, 108049.003249288, 117412.61838824968, -100810.92724930374, 99235.26337567132, 0.0, 0.0, 0.0, 193.0, 1.0, 1.0, 1.0, 0.0, 0.0, 0.0, 257.0, 256.0, 0.0, 1.7620043699504437E9, 0.0, 2025-11-01 17:09:29.950
124.0, -74788.8028369907, 42461.87716268029, 124402.34415559104, -67123.27207604314, -43665.518601598575, -36598.612260653055, -159130.87536464637, -40946.9653304774, 0.0, 0.0, 0.0, 193.0, 1.0, 1.0, 1.0, 0.0, 0.0, 0.0, 257.0, 256.0, 0.0, 1.7620043699504952E9, 0.0, 2025-11-01 17:09:29.950
125.0, -169034.1957252259, -110971.3373746082, 6906.689036689882, -182574.346074384, -178180.48485284863, -170002.85327468553, -187500.02235174447, -177309.63853712543, 0.0, 0.0, 0.0, 193.0, 1.0, 1.0, 1.0, 0.0, 0.0, 0.0, 257.0, 256.0, 0.0, 1.7620043699505358E9, 0.0, 2025-11-01 17:09:29.950
126.0, -70873.15718807664, -28350.595039200194, 86252.76669892868, -110515.00415980867, -112007.87717197862, -71148.35186581039, -181025.66075630914, -120655.4318255701, 0.0, 0.0, 0.0, 193.0, 1.0, 1.0, 1.0, 0.0, 0.0, 0.0, 257.0, 256.0, 0.0, 1.7620043699505868E9, 0.0, 2025-11-01 17:09:29.950
127.0, 68901.30864397391, 131113.5448352748, 170720.07605076744, 70101.01617586806, 74719.22185650133, 108497.93803667284, -118524.01417780093, 57299.12159432431, 0.0, 0.0, 0.0, 193.0, 1.0, 1.0, 1.0, 0.0, 0.0, 0.0, 257.0, 256.0, 0.0, 1.7620043699506266E9, 0.0, 2025-11-01 17:09:29.950
128.0, 54942.33130721228, 149528.6553536243, 168637.049929744, 87532.94051086194, 108715.15228928952, 118165.894528138, -100062.21086528432, 99978.81650672156, 0.0, 0.0, 0.0, 193.0, 1.0, 1.0, 1.0, 0.0, 0.0, 0.0, 257.0, 256.0, 0.0, 1.7620043699506762E9, 0.0, 2025-11-01 17:09:29.950
129.0, -73797.83824656466, 43888.49960428472, 125029.44469802914, -65760.66503055871, -42390.32922867885, -35230.84196219945, -158695.01634776787, -39490.43625479177, 0.0, 0.0, 0.0, 193.0, 1.0, 1.0, 1.0, 0.0, 0.0, 0.0, 257.0, 256.0, 0.0, 1.7620043699507153E9, 0.0, 2025-11-01 17:09:29.950
130.0, -168987.01119268074, -110139.98659133753, 7208.169365903064, -182296.15626289323, -177860.07259608182, -169704.14456178484, -187500.02235174447, -176910.45873289809, 0.0, 0.0, 0.0, 193.0, 1.0, 1.0, 1.0, 0.0, 0.0, 0.0, 257.0, 256.0, 0.0, 1.7620043699507933E9, 0.0, 2025-11-01 17:09:29.950
131.0, -72052.94931566111, -29192.02645922023, 85382.72504600586, -111443.38386575984, -113023.69690223897, -72402.12826754192, -181244.17141010423, -121255.4197019839, 0.0, 0.0, 0.0, 193.0, 1.0, 1.0, 1.0, 0.0, 0.0, 0.0, 257.0, 256.0, 0.0, 1.7620043699508495E9, 0.0, 2025-11-01 17:09:29.950
132.0, 68170.89833866339, 130723.41748755188, 170671.19278564368, 69319.21921005478, 73684.40314345398, 107681.67468090948, -119067.13921632043, 56886.44133644597, 0.0, 0.0, 0.0, 193.0, 1.0, 1.0, 1.0, 0.0, 0.0, 0.0, 257.0, 256.0, 0.0, 1.762004369950891E9, 0.0, 2025-11-01 17:09:29.950
133.0, 55063.92479704914, 149756.44198136832, 168734.01179719114, 87834.59965403077, 108829.50381392287, 118267.170282265, -100185.57014293315, 100335.63975520608, 0.0, 0.0, 0.0, 193.0, 1.0, 1.0, 1.0, 0.0, 0.0, 0.0, 257.0, 256.0, 0.0, 1.7620043699509425E9, 0.0, 2025-11-01 17:09:29.950
134.0, -73131.64450307423, 44881.98994183421, 125741.50422114185, -64834.475795564154, -41305.62142200726, -34613.464428599415, -158512.00026416781, -38486.88763223739, 0.0, 0.0, 0.0, 193.0, 1.0, 1.0, 1.0, 0.0, 0.0, 0.0, 257.0, 256.0, 0.0, 1.762004369950982E9, 0.0, 2025-11-01 17:09:29.950
135.0, -169151.05064523825, -110040.02959013339, 7587.12084139834, -182241.03686106644, -177701.82224533823, -169876.56591851305, -187500.02235174447, -176757.39398686815, 0.0, 0.0, 0.0, 193.0, 1.0, 1.0, 1.0, 0.0, 0.0, 0.0, 257.0, 256.0, 0.0, 1.762004369951034E9, 0.0, 2025-11-01 17:09:29.951
136.0, -73096.30639509039, -30396.606671405636, 84802.78668436846, -112801.83348677558, -114287.50923723093, -74017.66765328261, -181558.77221331265, -122601.53116006032, 0.0, 0.0, 0.0, 193.0, 1.0, 1.0, 1.0, 0.0, 0.0, 0.0, 257.0, 256.0, 0.0, 1.7620043699510732E9, 0.0, 2025-11-01 17:09:29.951
137.0, 67992.3973074433, 130266.32431344084, 170675.283154879, 68394.50519019428, 72671.66795392847, 106981.05925095789, -119632.54894406188, 55695.36157791157, 0.0, 0.0, 0.0, 193.0, 1.0, 1.0, 1.0, 0.0, 0.0, 0.0, 257.0, 256.0, 0.0, 1.7620043699511232E9, 0.0, 2025-11-01 17:09:29.951
138.0, 55946.617537333674, 150080.8328486482, 168806.18558003733, 88638.48014336589, 109124.07745409936, 118864.07361794397, -99848.5728917805, 100883.27984610556, 0.0, 0.0, 0.0, 193.0, 1.0, 1.0, 1.0, 0.0, 0.0, 0.0, 257.0, 256.0, 0.0, 1.762004369951166E9, 0.0, 2025-11-01 17:09:29.951
139.0, -71919.1294216072, 46323.00690686786, 126417.80095312608, -63490.64421542218, -40191.878699288216, -33357.22933497779, -158182.66966136332, -36902.37246780068, 0.0, 0.0, 0.0, 193.0, 1.0, 1.0, 1.0, 0.0, 0.0, 0.0, 257.0, 256.0, 0.0, 1.7620043699512174E9, 0.0, 2025-11-01 17:09:29.951
140.0, -168941.3242270141, -109412.9737511842, 7627.599850606901, -181996.84405289224, -177418.1339047115, -169494.06051564938, -187500.02235174447, -176285.36984746097, 0.0, 0.0, 0.0, 193.0, 1.0, 1.0, 1.0, 0.0, 0.0, 0.0, 257.0, 256.0, 0.0, 1.762004369951259E9, 0.0, 2025-11-01 17:09:29.951
141.0, -74123.1455353672, -31630.892351972147, 83530.07835508327, -113587.02791774606, -115442.26741102546, -74688.73407706429, -181834.25746372432, -123356.57308776058, 0.0, 0.0, 0.0, 193.0, 1.0, 1.0, 1.0, 0.0, 0.0, 0.0, 257.0, 256.0, 0.0, 1.7620043699582055E9, 0.0, 2025-11-01 17:09:29.958
142.0, 67450.81453929121, 129656.79224214463, 170547.252362639, 67696.46021085503, 71528.9797221398, 106613.64127560155, -120128.86942969197, 54786.80786929225, 0.0, 0.0, 0.0, 193.0, 1.0, 1.0, 1.0, 0.0, 0.0, 0.0, 257.0, 256.0, 0.0, 1.7620043699582796E9, 0.0, 2025-11-01 17:09:29.958
143.0, 56447.49777883265, 150255.86935947769, 168836.47219377427, 88964.90501939118, 109361.67649765927, 119813.64277763877, -99706.34874181137, 100976.26310303964, 0.0, 0.0, 0.0, 193.0, 1.0, 1.0, 1.0, 0.0, 0.0, 0.0, 257.0, 256.0, 0.0, 1.7620043699583385E9, 0.0, 2025-11-01 17:09:29.958
144.0, -70963.74880835401, 47254.2029326204, 126803.97204208042, -62505.53578204344, -39218.28141430395, -31635.586218307762, -157918.69555934615, -36008.86148319978, 0.0, 0.0, 0.0, 193.0, 1.0, 1.0, 1.0, 0.0, 0.0, 0.0, 257.0, 256.0, 0.0, 1.7620043699583845E9, 0.0, 2025-11-01 17:09:29.958
145.0, -168809.2477690277, -109245.29096428049, 7405.781138632434, -181797.0641609507, -177180.62426812938, -169204.78423890882, -187500.02235174447, -176019.0935157649, 0.0, 0.0, 0.0, 193.0, 1.0, 1.0, 1.0, 0.0, 0.0, 0.0, 257.0, 256.0, 0.0, 1.7620043699584925E9, 0.0, 2025-11-01 17:09:29.958
146.0, -74950.85298429168, -32890.346096795336, 82228.91625510648, -114681.05640185553, -116513.02772915695, -76076.93386995005, -182021.721544471, -124280.66125877635, 0.0, 0.0, 0.0, 193.0, 1.0, 1.0, 1.0, 0.0, 0.0, 0.0, 257.0, 256.0, 0.0, 1.7620043699585528E9, 0.0, 2025-11-01 17:09:29.958
147.0, 67202.44195490384, 129065.11921466819, 170314.05661273678, 67029.19358363075, 70665.01774370883, 105842.79666457138, -120455.80839583975, 54215.00554263658, 0.0, 0.0, 0.0, 193.0, 1.0, 1.0, 1.0, 0.0, 0.0, 0.0, 257.0, 256.0, 0.0, 1.7620043699585972E9, 0.0, 2025-11-01 17:09:29.958
148.0, 57093.910228480134, 150334.6369069382, 168761.10211147097, 89689.50387114333, 109710.65428383998, 120099.67805143334, -99240.09135247367, 101691.63068433174, 0.0, 0.0, 0.0, 193.0, 1.0, 1.0, 1.0, 0.0, 0.0, 0.0, 257.0, 256.0, 0.0, 1.762004369958652E9, 0.0, 2025-11-01 17:09:29.958
149.0, -70005.68598576618, 48093.309771217086, 126976.6169162532, -61301.44730823604, -38192.89513741674, -30630.137697474685, -157550.8305491007, -34554.83580289314, 0.0, 0.0, 0.0, 193.0, 1.0, 1.0, 1.0, 0.0, 0.0, 0.0, 257.0, 256.0, 0.0, 1.7620043699586954E9, 0.0, 2025-11-01 17:09:29.958
150.0, -168684.8603111339, -108717.67803641297, 6924.033990387201, -181502.46816902974, -176827.77963015792, -168927.86847685202, -187500.02235174447, -175523.82356212422, 0.0, 0.0, 0.0, 193.0, 1.0, 1.0, 1.0, 0.0, 0.0, 0.0, 257.0, 256.0, 0.0, 1.7620043699587505E9, 0.0, 2025-11-01 17:09:29.958
151.0, -76066.27208784486, -33911.7537631695, 80620.14944793576, -115537.03880751596, -117264.71689518892, -77305.743373125, -182167.2984561084, -124874.3235915093, 0.0, 0.0, 0.0, 193.0, 1.0, 1.0, 1.0, 0.0, 0.0, 0.0, 257.0, 256.0, 0.0, 1.762004369958796E9, 0.0, 2025-11-01 17:09:29.958
152.0, 66660.94859372957, 128624.6557384319, 170033.65397854496, 66435.10656775314, 70185.23754897565, 105222.13342453641, -120220.84685812556, 53777.44779317949, 0.0, 0.0, 0.0, 193.0, 1.0, 1.0, 1.0, 0.0, 0.0, 0.0, 257.0, 256.0, 0.0, 1.762004369958854E9, 0.0, 2025-11-01 17:09:29.958
153.0, 57494.74406179715, 150575.36519472185, 168737.29750362606, 90252.41020350579, 110458.9236329703, 120420.93967448946, -98275.05478561578, 102211.9792952513, 0.0, 0.0, 0.0, 193.0, 1.0, 1.0, 1.0, 0.0, 0.0, 0.0, 257.0, 256.0, 0.0, 1.7620043699588985E9, 0.0, 2025-11-01 17:09:29.958
154.0, -69244.92201148534, 49267.60336966555, 127816.95310079493, -60300.379729316206, -36697.54108161224, -29654.573458978353, -157075.34188930297, -33324.260511906214, 0.0, 0.0, 0.0, 193.0, 1.0, 1.0, 1.0, 0.0, 0.0, 0.0, 257.0, 256.0, 0.0, 1.7620043699589531E9, 0.0, 2025-11-01 17:09:29.958
155.0, -168668.49883419264, -108600.51019197825, 7629.544452374513, -181331.41026871328, -176463.5579542587, -168849.0562259026, -187500.02235174447, -175181.97598242474, 0.0, 0.0, 0.0, 193.0, 1.0, 1.0, 1.0, 0.0, 0.0, 0.0, 257.0, 256.0, 0.0, 1.7620043699589968E9, 0.0, 2025-11-01 17:09:29.958
156.0, -77044.85381184267, -35512.563349314136, 80177.24963155384, -116795.82200000549, -118362.52282411134, -78952.30698016965, -182409.36784855937, -126236.10362244888, 0.0, 0.0, 0.0, 193.0, 1.0, 1.0, 1.0, 0.0, 0.0, 0.0, 257.0, 256.0, 0.0, 1.762004369959051E9, 0.0, 2025-11-01 17:09:29.959
157.0, 66230.81162343164, 127775.22239389687, 170079.36329595605, 65169.23787227129, 69226.79474673209, 104154.47999888421, -120828.99312126555, 51974.53373366997, 0.0, 0.0, 0.0, 193.0, 1.0, 1.0, 1.0, 0.0, 0.0, 0.0, 257.0, 256.0, 0.0, 1.7620043699590943E9, 0.0, 2025-11-01 17:09:29.959
158.0, 58039.34431545071, 150717.45523422424, 168885.5119211092, 90440.14250518591, 111104.84434423975, 120843.34294120586, -98219.39894192207, 101594.5794099068, 0.0, 0.0, 0.0, 193.0, 1.0, 1.0, 1.0, 0.0, 0.0, 0.0, 257.0, 256.0, 0.0, 1.7620043699591513E9, 0.0, 2025-11-01 17:09:29.959
159.0, -68300.80667743763, 50269.83323929706, 129150.01114010945, -59271.05954540486, -35311.68822189429, -28530.414823343137, -156796.83915338985, -33034.134868876325, 0.0, 0.0, 0.0, 193.0, 1.0, 1.0, 1.0, 0.0, 0.0, 0.0, 257.0, 256.0, 0.0, 1.7620043699591954E9, 0.0, 2025-11-01 17:09:29.959
160.0, -168494.9822419861, -108216.8424984029, 9257.287890587795, -181107.11051310427, -176070.0107896341, -168475.33505860987, -187500.02235174447, -175027.4583730052, 0.0, 0.0, 0.0, 193.0, 1.0, 1.0, 1.0, 0.0, 0.0, 0.0, 257.0, 256.0, 0.0, 1.7620043699592948E9, 0.0, 2025-11-01 17:09:29.959
161.0, -78020.73097476138, -36952.44037538056, 80097.52095908177, -117961.82310126103, -119314.4612687184, -79766.37986497639, -182641.5577699611, -127105.34061257132, 0.0, 0.0, 0.0, 193.0, 1.0, 1.0, 1.0, 0.0, 0.0, 0.0, 257.0, 256.0, 0.0, 1.7620043699593537E9, 0.0, 2025-11-01 17:09:29.959
162.0, 65810.33060673841, 127123.1549529022, 170140.27179959678, 64405.434060744534, 68703.60746426672, 103771.61696810926, -121263.28751603217, 51690.487765131926, 0.0, 0.0, 0.0, 193.0, 1.0, 1.0, 1.0, 0.0, 0.0, 0.0, 257.0, 256.0, 0.0, 1.7620043699593976E9, 0.0, 2025-11-01 17:09:29.959
163.0, 58566.86783634041, 150849.1517125549, 168992.4426665834, 91070.50640231448, 112129.7165310045, 121362.97629630283, -97980.86112509503, 102862.39270715628, 0.0, 0.0, 0.0, 193.0, 1.0, 1.0, 1.0, 0.0, 0.0, 0.0, 257.0, 256.0, 0.0, 1.7620043699594524E9, 0.0, 2025-11-01 17:09:29.959
164.0, -67459.73288532888, 51194.27903822411, 129717.58898706306, -58152.5782528613, -33867.877288803735, -27436.56515318932, -156562.16818835356, -31197.22380605028, 0.0, 0.0, 0.0, 193.0, 1.0, 1.0, 1.0, 0.0, 0.0, 0.0, 257.0, 256.0, 0.0, 1.762004369959498E9, 0.0, 2025-11-01 17:09:29.959
165.0, -168496.3233466534, -107800.45185094498, 9152.882892237056, -180891.68440004403, -175743.65296884216, -168327.16534461564, -187500.02235174447, -174530.55674201928, 0.0, 0.0, 0.0, 193.0, 1.0, 1.0, 1.0, 0.0, 0.0, 0.0, 257.0, 256.0, 0.0, 1.7620043699595528E9, 0.0, 2025-11-01 17:09:29.959
166.0, -79156.44546227998, -38001.85477755723, 78854.83102260006, -118802.36045150286, -120293.49002760531, -81173.24336448233, -182952.17996265652, -127960.31718973127, 0.0, 0.0, 0.0, 193.0, 1.0, 1.0, 1.0, 0.0, 0.0, 0.0, 257.0, 256.0, 0.0, 1.7620043699595964E9, 0.0, 2025-11-01 17:09:29.959
167.0, 65360.5241013198, 126642.21246745736, 170006.04957414264, 63765.28009954454, 67512.4382987545, 102949.63156576533, -122133.10565151044, 50653.21036019449, 0.0, 0.0, 0.0, 193.0, 1.0, 1.0, 1.0, 0.0, 0.0, 0.0, 257.0, 256.0, 0.0, 1.7620043699596503E9, 0.0, 2025-11-01 17:09:29.959
168.0, 59088.915179838565, 151103.80513713422, 169022.05872798667, 91653.79752562018, 111753.93900322188, 122049.35366503641, -98169.19692387545, 102716.1452431852, 0.0, 0.0, 0.0, 193.0, 1.0, 1.0, 1.0, 0.0, 0.0, 0.0, 257.0, 256.0, 0.0, 1.7620043699596937E9, 0.0, 2025-11-01 17:09:29.959
